FileType,0
Number of Points,3000
Sweep Time,3e+08
Start Frequency,0
Stop Frequency,2e+08
Average Count,1
Average Type,0
RBW,10000
RBW Filter,0
RBW Filter BW,0
VBW,10000
Sweep Type,0
X Axis Scale,1
PreAmp State,0
Trigger Source,0
Trigger Level,-25
Trigger Edge,0
Trigger Delay Switch,0
Trigger Delay,1
Attenuation,0
Ref Level Offset,0
External Gain,0
Trace Type,0
Detector,0
Trace Math,5
Trace Math Oper1,4
Trace Math Oper2,5
Trace Math Offset,0
Trace Name,0
Full Span,2e+08
Y Axis Unit,0
DATA,
0,-31.9562
66688.9,-88.8366
133378,-78.2492
200067,-73.2996
266756,-80.3897
333444,-80.3578
400133,-80.7272
466822,-80.1463
533511,-79.8404
600200,-79.3444
666889,-81.1582
733578,-81.1458
800267,-81.1075
866956,-80.7612
933645,-80.9905
1.00033e+06,-80.1996
1.06702e+06,-80.0508
1.13371e+06,-79.8681
1.2004e+06,-80.5129
1.26709e+06,-80.3345
1.33378e+06,-80.9504
1.40047e+06,-79.6274
1.46716e+06,-80.633
1.53384e+06,-81.1461
1.60053e+06,-79.9019
1.66722e+06,-79.0349
1.73391e+06,-79.2982
1.8006e+06,-80.9292
1.86729e+06,-80.6088
1.93398e+06,-80.2574
2.00067e+06,-81.241
2.06736e+06,-80.2853
2.13404e+06,-80.21
2.20073e+06,-80.9865
2.26742e+06,-80.7296
2.33411e+06,-81.2349
2.4008e+06,-80.814
2.46749e+06,-80.606
2.53418e+06,-79.879
2.60087e+06,-79.3256
2.66756e+06,-80.7237
2.73424e+06,-79.6346
2.80093e+06,-81.0982
2.86762e+06,-80.7579
2.93431e+06,-80.8831
3.001e+06,-80.3398
3.06769e+06,-81.4514
3.13438e+06,-81.0149
3.20107e+06,-79.5421
3.26776e+06,-80.5019
3.33444e+06,-81.6306
3.40113e+06,-80.463
3.46782e+06,-80.9071
3.53451e+06,-80.677
3.6012e+06,-81.3111
3.66789e+06,-80.9066
3.73458e+06,-80.6815
3.80127e+06,-81.3319
3.86796e+06,-82.0407
3.93464e+06,-79.9252
4.00133e+06,-81.723
4.06802e+06,-80.2851
4.13471e+06,-80.3228
4.2014e+06,-80.553
4.26809e+06,-80.9764
4.33478e+06,-81.2196
4.40147e+06,-80.1765
4.46816e+06,-81.0271
4.53484e+06,-80.8944
4.60153e+06,-81.2242
4.66822e+06,-81.7326
4.73491e+06,-82.1256
4.8016e+06,-81.3401
4.86829e+06,-81.3666
4.93498e+06,-79.6775
5.00167e+06,-81.3024
5.06836e+06,-80.7576
5.13505e+06,-81.687
5.20173e+06,-81.1079
5.26842e+06,-80.7521
5.33511e+06,-80.8119
5.4018e+06,-81.4782
5.46849e+06,-80.4917
5.53518e+06,-80.429
5.60187e+06,-82.0249
5.66856e+06,-82.2644
5.73525e+06,-80.9984
5.80193e+06,-81.4448
5.86862e+06,-79.6357
5.93531e+06,-80.4713
6.002e+06,-82.1342
6.06869e+06,-79.6572
6.13538e+06,-81.0179
6.20207e+06,-80.9208
6.26876e+06,-81.1001
6.33545e+06,-80.3554
6.40213e+06,-81.5737
6.46882e+06,-82.0633
6.53551e+06,-80.4218
6.6022e+06,-80.7489
6.66889e+06,-81.2139
6.73558e+06,-81.421
6.80227e+06,-81.5673
6.86896e+06,-80.7731
6.93565e+06,-81.7886
7.00233e+06,-81.4096
7.06902e+06,-82.2255
7.13571e+06,-81.3664
7.2024e+06,-81.3183
7.26909e+06,-79.7203
7.33578e+06,-80.56
7.40247e+06,-82.3915
7.46916e+06,-81.7369
7.53585e+06,-80.3525
7.60253e+06,-81.4189
7.66922e+06,-81.8544
7.73591e+06,-81.0914
7.8026e+06,-80.9934
7.86929e+06,-80.711
7.93598e+06,-81.7414
8.00267e+06,-81.6689
8.06936e+06,-80.1212
8.13605e+06,-82.7898
8.20273e+06,-82.1114
8.26942e+06,-82.5289
8.33611e+06,-81.9323
8.4028e+06,-81.0536
8.46949e+06,-80.355
8.53618e+06,-81.331
8.60287e+06,-81.6068
8.66956e+06,-80.93
8.73625e+06,-81.8236
8.80293e+06,-81.4916
8.86962e+06,-81.1928
8.93631e+06,-81.4426
9.003e+06,-81.9478
9.06969e+06,-80.7429
9.13638e+06,-81.5507
9.20307e+06,-82.2203
9.26976e+06,-81.4905
9.33645e+06,-81.0616
9.40313e+06,-81.0049
9.46982e+06,-81.1704
9.53651e+06,-82.0096
9.6032e+06,-81.9464
9.66989e+06,-82.63
9.73658e+06,-81.3869
9.80327e+06,-80.761
9.86996e+06,-81.2272
9.93665e+06,-81.5871
1.00033e+07,-80.2802
1.007e+07,-82.1759
1.01367e+07,-82.0527
1.02034e+07,-81.6061
1.02701e+07,-81.1971
1.03368e+07,-81.5937
1.04035e+07,-82.0035
1.04702e+07,-81.3645
1.05368e+07,-81.7747
1.06035e+07,-81.0425
1.06702e+07,-80.3959
1.07369e+07,-80.7121
1.08036e+07,-80.7712
1.08703e+07,-82.2853
1.0937e+07,-80.9669
1.10037e+07,-80.9305
1.10704e+07,-82.295
1.1137e+07,-81.4865
1.12037e+07,-82.0583
1.12704e+07,-80.9684
1.13371e+07,-82.2861
1.14038e+07,-81.2425
1.14705e+07,-82.1077
1.15372e+07,-80.0298
1.16039e+07,-81.8702
1.16706e+07,-80.6919
1.17372e+07,-82.6654
1.18039e+07,-80.5039
1.18706e+07,-82.2268
1.19373e+07,-81.4235
1.2004e+07,-81.5049
1.20707e+07,-81.5038
1.21374e+07,-81.0972
1.22041e+07,-80.9426
1.22708e+07,-81.036
1.23374e+07,-80.316
1.24041e+07,-82.5683
1.24708e+07,-81.232
1.25375e+07,-81.975
1.26042e+07,-81.3249
1.26709e+07,-82.2377
1.27376e+07,-81.8167
1.28043e+07,-81.0917
1.2871e+07,-80.8873
1.29376e+07,-81.8808
1.30043e+07,-81.5361
1.3071e+07,-81.6838
1.31377e+07,-81.963
1.32044e+07,-81.4084
1.32711e+07,-81.9339
1.33378e+07,-80.1611
1.34045e+07,-82.2353
1.34712e+07,-81.5123
1.35378e+07,-82.7876
1.36045e+07,-82.0544
1.36712e+07,-81.2771
1.37379e+07,-81.7775
1.38046e+07,-81.5966
1.38713e+07,-82.0842
1.3938e+07,-81.7861
1.40047e+07,-81.4846
1.40714e+07,-82.6757
1.4138e+07,-81.6479
1.42047e+07,-81.6102
1.42714e+07,-82.3082
1.43381e+07,-82.8702
1.44048e+07,-82.2707
1.44715e+07,-81.7405
1.45382e+07,-82.2043
1.46049e+07,-81.9334
1.46716e+07,-81.7767
1.47382e+07,-81.4487
1.48049e+07,-80.6996
1.48716e+07,-81.5442
1.49383e+07,-81.4371
1.5005e+07,-82.2986
1.50717e+07,-81.6912
1.51384e+07,-81.7145
1.52051e+07,-82.0165
1.52718e+07,-82.1658
1.53384e+07,-81.4107
1.54051e+07,-80.5559
1.54718e+07,-81.2786
1.55385e+07,-81.8386
1.56052e+07,-80.8742
1.56719e+07,-81.7375
1.57386e+07,-81.3613
1.58053e+07,-81.5701
1.5872e+07,-81.2008
1.59386e+07,-81.891
1.60053e+07,-81.7795
1.6072e+07,-80.9482
1.61387e+07,-81.6824
1.62054e+07,-81.2791
1.62721e+07,-81.8882
1.63388e+07,-81.5994
1.64055e+07,-81.0495
1.64722e+07,-81.1734
1.65388e+07,-81.3122
1.66055e+07,-81.0257
1.66722e+07,-81.5495
1.67389e+07,-81.3827
1.68056e+07,-82.4386
1.68723e+07,-81.501
1.6939e+07,-81.7683
1.70057e+07,-81.4102
1.70724e+07,-81.2784
1.7139e+07,-81.8047
1.72057e+07,-82.1068
1.72724e+07,-81.4279
1.73391e+07,-80.2142
1.74058e+07,-81.3018
1.74725e+07,-80.5569
1.75392e+07,-81.5156
1.76059e+07,-81.5991
1.76726e+07,-81.1058
1.77392e+07,-80.6633
1.78059e+07,-81.7509
1.78726e+07,-81.0121
1.79393e+07,-81.7739
1.8006e+07,-82.6358
1.80727e+07,-80.6151
1.81394e+07,-82.067
1.82061e+07,-81.1881
1.82728e+07,-80.6498
1.83394e+07,-81.6269
1.84061e+07,-81.3657
1.84728e+07,-82.2701
1.85395e+07,-81.3383
1.86062e+07,-82.0989
1.86729e+07,-81.9597
1.87396e+07,-81.2778
1.88063e+07,-82.452
1.8873e+07,-81.3684
1.89396e+07,-81.7864
1.90063e+07,-80.9147
1.9073e+07,-81.0022
1.91397e+07,-81.1675
1.92064e+07,-80.7858
1.92731e+07,-80.6811
1.93398e+07,-82.377
1.94065e+07,-81.7412
1.94732e+07,-81.5702
1.95398e+07,-81.0427
1.96065e+07,-81.6165
1.96732e+07,-81.7287
1.97399e+07,-81.6256
1.98066e+07,-82.0783
1.98733e+07,-80.3386
1.994e+07,-81.3399
2.00067e+07,-81.4021
2.00734e+07,-81.5618
2.014e+07,-81.2302
2.02067e+07,-81.5504
2.02734e+07,-81.7854
2.03401e+07,-81.7641
2.04068e+07,-81.035
2.04735e+07,-81.4808
2.05402e+07,-81.1232
2.06069e+07,-81.9254
2.06736e+07,-82.3725
2.07402e+07,-81.7018
2.08069e+07,-80.6857
2.08736e+07,-82.0184
2.09403e+07,-81.0874
2.1007e+07,-79.9273
2.10737e+07,-81.3227
2.11404e+07,-80.9208
2.12071e+07,-81.8566
2.12738e+07,-82.2894
2.13404e+07,-81.5532
2.14071e+07,-82.2041
2.14738e+07,-81.995
2.15405e+07,-80.0094
2.16072e+07,-81.6799
2.16739e+07,-81.2158
2.17406e+07,-81.9183
2.18073e+07,-80.5311
2.1874e+07,-79.819
2.19406e+07,-81.5611
2.20073e+07,-80.3922
2.2074e+07,-81.0384
2.21407e+07,-81.2799
2.22074e+07,-81.2238
2.22741e+07,-81.8992
2.23408e+07,-81.7903
2.24075e+07,-81.972
2.24742e+07,-79.894
2.25408e+07,-80.9454
2.26075e+07,-81.2984
2.26742e+07,-81.3208
2.27409e+07,-81.4494
2.28076e+07,-81.9577
2.28743e+07,-80.1221
2.2941e+07,-81.4509
2.30077e+07,-81.2097
2.30744e+07,-81.6558
2.3141e+07,-79.8989
2.32077e+07,-80.6479
2.32744e+07,-80.6747
2.33411e+07,-82.0452
2.34078e+07,-81.8569
2.34745e+07,-81.8703
2.35412e+07,-81.5494
2.36079e+07,-81.7853
2.36746e+07,-81.1743
2.37412e+07,-82.1205
2.38079e+07,-80.7465
2.38746e+07,-81.6757
2.39413e+07,-81.2695
2.4008e+07,-80.5857
2.40747e+07,-80.781
2.41414e+07,-81.1893
2.42081e+07,-81.5703
2.42748e+07,-82.1699
2.43414e+07,-81.3877
2.44081e+07,-81.7327
2.44748e+07,-80.4611
2.45415e+07,-81.108
2.46082e+07,-81.686
2.46749e+07,-81.11
2.47416e+07,-81.2456
2.48083e+07,-81.1152
2.4875e+07,-81.343
2.49416e+07,-81.2896
2.50083e+07,-81.7999
2.5075e+07,-80.8776
2.51417e+07,-82.0857
2.52084e+07,-81.2249
2.52751e+07,-82.175
2.53418e+07,-81.6791
2.54085e+07,-82.0688
2.54752e+07,-81.2616
2.55418e+07,-82.0031
2.56085e+07,-80.8725
2.56752e+07,-81.2959
2.57419e+07,-80.7902
2.58086e+07,-80.6723
2.58753e+07,-80.2064
2.5942e+07,-81.2703
2.60087e+07,-81.2402
2.60754e+07,-79.9866
2.6142e+07,-82.0153
2.62087e+07,-80.0908
2.62754e+07,-81.4698
2.63421e+07,-80.6215
2.64088e+07,-80.9216
2.64755e+07,-80.9084
2.65422e+07,-80.8889
2.66089e+07,-81.0181
2.66756e+07,-80.9191
2.67422e+07,-80.2653
2.68089e+07,-80.9495
2.68756e+07,-80.5225
2.69423e+07,-81.1858
2.7009e+07,-81.1916
2.70757e+07,-81.6011
2.71424e+07,-80.1453
2.72091e+07,-79.9336
2.72758e+07,-80.8725
2.73424e+07,-80.5
2.74091e+07,-80.7559
2.74758e+07,-80.9527
2.75425e+07,-80.13
2.76092e+07,-81.1795
2.76759e+07,-80.8093
2.77426e+07,-80.5294
2.78093e+07,-78.9911
2.7876e+07,-80.0722
2.79426e+07,-80.1522
2.80093e+07,-80.6762
2.8076e+07,-81.0331
2.81427e+07,-80.0583
2.82094e+07,-79.882
2.82761e+07,-81.2813
2.83428e+07,-80.9572
2.84095e+07,-80.1045
2.84762e+07,-80.1994
2.85428e+07,-80.1466
2.86095e+07,-80.204
2.86762e+07,-80.1975
2.87429e+07,-80.4778
2.88096e+07,-80.5709
2.88763e+07,-79.6898
2.8943e+07,-80.5575
2.90097e+07,-80.2411
2.90764e+07,-81.1689
2.9143e+07,-79.795
2.92097e+07,-80.2304
2.92764e+07,-80.4428
2.93431e+07,-80.9288
2.94098e+07,-79.4786
2.94765e+07,-79.7863
2.95432e+07,-81.2266
2.96099e+07,-80.5573
2.96766e+07,-80.747
2.97432e+07,-80.3076
2.98099e+07,-79.8613
2.98766e+07,-81.2596
2.99433e+07,-79.9729
3.001e+07,-80.3911
3.00767e+07,-81.5117
3.01434e+07,-80.8456
3.02101e+07,-80.0818
3.02768e+07,-81.1349
3.03434e+07,-80.6727
3.04101e+07,-79.4131
3.04768e+07,-79.6638
3.05435e+07,-80.6493
3.06102e+07,-80.8005
3.06769e+07,-80.1497
3.07436e+07,-79.6915
3.08103e+07,-78.8547
3.0877e+07,-80.7574
3.09436e+07,-79.6512
3.10103e+07,-80.8249
3.1077e+07,-79.9736
3.11437e+07,-79.4784
3.12104e+07,-78.8885
3.12771e+07,-78.6186
3.13438e+07,-78.9124
3.14105e+07,-79.425
3.14772e+07,-79.2473
3.15438e+07,-77.8237
3.16105e+07,-78.5187
3.16772e+07,-78.8316
3.17439e+07,-78.4241
3.18106e+07,-77.6518
3.18773e+07,-78.9883
3.1944e+07,-77.8288
3.20107e+07,-78.9213
3.20774e+07,-78.3782
3.2144e+07,-76.3372
3.22107e+07,-76.8099
3.22774e+07,-77.4835
3.23441e+07,-77.8362
3.24108e+07,-77.6071
3.24775e+07,-76.8889
3.25442e+07,-77.1826
3.26109e+07,-76.3216
3.26776e+07,-75.3554
3.27442e+07,-75.2831
3.28109e+07,-74.7826
3.28776e+07,-74.5608
3.29443e+07,-74.0615
3.3011e+07,-74.5016
3.30777e+07,-75.1335
3.31444e+07,-74.148
3.32111e+07,-74.6962
3.32778e+07,-73.2662
3.33444e+07,-73.983
3.34111e+07,-74.1222
3.34778e+07,-74.3558
3.35445e+07,-73.2361
3.36112e+07,-73.932
3.36779e+07,-74.5166
3.37446e+07,-74.9017
3.38113e+07,-74.3258
3.3878e+07,-73.4995
3.39446e+07,-75.5091
3.40113e+07,-75.3011
3.4078e+07,-74.9065
3.41447e+07,-74.949
3.42114e+07,-73.9749
3.42781e+07,-73.9044
3.43448e+07,-74.9824
3.44115e+07,-74.905
3.44782e+07,-74.9107
3.45448e+07,-75.4541
3.46115e+07,-75.7012
3.46782e+07,-75.2816
3.47449e+07,-74.6245
3.48116e+07,-74.5609
3.48783e+07,-74.834
3.4945e+07,-74.7814
3.50117e+07,-74.9681
3.50784e+07,-74.8574
3.5145e+07,-75.2855
3.52117e+07,-74.7241
3.52784e+07,-74.7281
3.53451e+07,-74.3831
3.54118e+07,-74.9868
3.54785e+07,-73.5088
3.55452e+07,-74.2236
3.56119e+07,-74.3074
3.56786e+07,-75.4469
3.57452e+07,-74.5094
3.58119e+07,-73.5602
3.58786e+07,-73.942
3.59453e+07,-73.5017
3.6012e+07,-73.833
3.60787e+07,-72.1953
3.61454e+07,-73.583
3.62121e+07,-74.2691
3.62788e+07,-73.3413
3.63454e+07,-72.6519
3.64121e+07,-74.4062
3.64788e+07,-73.3607
3.65455e+07,-72.3917
3.66122e+07,-74.0111
3.66789e+07,-73.7789
3.67456e+07,-72.1008
3.68123e+07,-73.9461
3.6879e+07,-73.1851
3.69456e+07,-73.7498
3.70123e+07,-73.7296
3.7079e+07,-72.5422
3.71457e+07,-74.2159
3.72124e+07,-73.3312
3.72791e+07,-73.5341
3.73458e+07,-73.3433
3.74125e+07,-73.5917
3.74792e+07,-72.4417
3.75458e+07,-73.2829
3.76125e+07,-72.4056
3.76792e+07,-73.2472
3.77459e+07,-72.5007
3.78126e+07,-72.7933
3.78793e+07,-73.2401
3.7946e+07,-72.5511
3.80127e+07,-72.5444
3.80794e+07,-72.7296
3.8146e+07,-72.3159
3.82127e+07,-73.0091
3.82794e+07,-72.2144
3.83461e+07,-72.5084
3.84128e+07,-73.0484
3.84795e+07,-71.9208
3.85462e+07,-72.1012
3.86129e+07,-72.5753
3.86796e+07,-72.683
3.87462e+07,-71.9239
3.88129e+07,-73.0822
3.88796e+07,-72.2593
3.89463e+07,-71.7702
3.9013e+07,-72.2451
3.90797e+07,-72.2045
3.91464e+07,-73.1011
3.92131e+07,-73.1226
3.92798e+07,-73.668
3.93464e+07,-71.8145
3.94131e+07,-72.8172
3.94798e+07,-73.1149
3.95465e+07,-72.4644
3.96132e+07,-73.0591
3.96799e+07,-71.9961
3.97466e+07,-72.3843
3.98133e+07,-71.9731
3.988e+07,-72.4625
3.99466e+07,-71.5493
4.00133e+07,-72.7201
4.008e+07,-72.1659
4.01467e+07,-73.9807
4.02134e+07,-72.7407
4.02801e+07,-73.5181
4.03468e+07,-73.9515
4.04135e+07,-72.3458
4.04802e+07,-73.25
4.05468e+07,-73.0775
4.06135e+07,-73.6028
4.06802e+07,-73.031
4.07469e+07,-73.266
4.08136e+07,-73.6051
4.08803e+07,-74.1279
4.0947e+07,-73.7528
4.10137e+07,-72.3952
4.10804e+07,-73.7543
4.1147e+07,-72.7082
4.12137e+07,-73.508
4.12804e+07,-72.9674
4.13471e+07,-73.6458
4.14138e+07,-73.5047
4.14805e+07,-73.0015
4.15472e+07,-73.5982
4.16139e+07,-72.9437
4.16806e+07,-72.5257
4.17472e+07,-73.7523
4.18139e+07,-71.7154
4.18806e+07,-72.2429
4.19473e+07,-74.055
4.2014e+07,-73.0624
4.20807e+07,-73.2058
4.21474e+07,-73.998
4.22141e+07,-73.8982
4.22808e+07,-74.506
4.23474e+07,-74.1655
4.24141e+07,-73.3063
4.24808e+07,-72.3586
4.25475e+07,-73.5929
4.26142e+07,-73.8161
4.26809e+07,-72.9992
4.27476e+07,-72.8706
4.28143e+07,-73.1515
4.2881e+07,-72.2584
4.29476e+07,-73.3629
4.30143e+07,-72.3106
4.3081e+07,-72.4615
4.31477e+07,-72.2986
4.32144e+07,-72.6676
4.32811e+07,-73.3075
4.33478e+07,-72.6813
4.34145e+07,-72.5792
4.34812e+07,-73.9063
4.35478e+07,-72.4292
4.36145e+07,-72.8193
4.36812e+07,-72.4014
4.37479e+07,-73.5225
4.38146e+07,-72.8783
4.38813e+07,-73.0073
4.3948e+07,-72.1085
4.40147e+07,-71.345
4.40814e+07,-72.7068
4.4148e+07,-72.3621
4.42147e+07,-73.1726
4.42814e+07,-72.1627
4.43481e+07,-71.259
4.44148e+07,-72.9713
4.44815e+07,-71.9018
4.45482e+07,-72.1754
4.46149e+07,-70.358
4.46816e+07,-71.9034
4.47482e+07,-72.2836
4.48149e+07,-70.5461
4.48816e+07,-71.467
4.49483e+07,-71.3737
4.5015e+07,-72.6272
4.50817e+07,-71.4219
4.51484e+07,-71.0023
4.52151e+07,-71.2371
4.52818e+07,-70.2409
4.53484e+07,-71.1748
4.54151e+07,-71.3843
4.54818e+07,-71.0373
4.55485e+07,-69.7764
4.56152e+07,-70.7288
4.56819e+07,-71.3571
4.57486e+07,-69.8606
4.58153e+07,-69.7774
4.5882e+07,-71.9263
4.59486e+07,-70.0927
4.60153e+07,-69.936
4.6082e+07,-69.8035
4.61487e+07,-71.5949
4.62154e+07,-70.0357
4.62821e+07,-69.6966
4.63488e+07,-69.3975
4.64155e+07,-69.7201
4.64822e+07,-69.5081
4.65488e+07,-69.2986
4.66155e+07,-69.4267
4.66822e+07,-70.4306
4.67489e+07,-69.0515
4.68156e+07,-70.2983
4.68823e+07,-70.947
4.6949e+07,-71.5336
4.70157e+07,-72.3712
4.70824e+07,-72.1987
4.7149e+07,-71.5756
4.72157e+07,-71.8511
4.72824e+07,-72.249
4.73491e+07,-72.4944
4.74158e+07,-72.7394
4.74825e+07,-72.8362
4.75492e+07,-71.4604
4.76159e+07,-72.0751
4.76826e+07,-71.93
4.77492e+07,-71.8449
4.78159e+07,-72.7722
4.78826e+07,-72.4503
4.79493e+07,-70.5098
4.8016e+07,-72.1947
4.80827e+07,-72.3371
4.81494e+07,-72.3305
4.82161e+07,-72.56
4.82828e+07,-72.5052
4.83494e+07,-72.0916
4.84161e+07,-72.8478
4.84828e+07,-72.3864
4.85495e+07,-71.2459
4.86162e+07,-72.2949
4.86829e+07,-71.0641
4.87496e+07,-73.2494
4.88163e+07,-71.3598
4.8883e+07,-72.981
4.89496e+07,-71.3425
4.90163e+07,-72.8154
4.9083e+07,-71.7308
4.91497e+07,-71.5053
4.92164e+07,-72.3001
4.92831e+07,-72.3741
4.93498e+07,-71.6645
4.94165e+07,-70.9817
4.94832e+07,-71.546
4.95498e+07,-73.2098
4.96165e+07,-71.1462
4.96832e+07,-71.956
4.97499e+07,-72.123
4.98166e+07,-71.6434
4.98833e+07,-70.8272
4.995e+07,-72.3485
5.00167e+07,-72.1416
5.00834e+07,-71.1399
5.01501e+07,-70.7433
5.02167e+07,-70.9344
5.02834e+07,-71.7694
5.03501e+07,-71.6067
5.04168e+07,-72.7673
5.04835e+07,-71.8517
5.05502e+07,-70.422
5.06169e+07,-71.5262
5.06836e+07,-71.7031
5.07503e+07,-71.2623
5.08169e+07,-71.5785
5.08836e+07,-69.8179
5.09503e+07,-71.0616
5.1017e+07,-71.2644
5.10837e+07,-70.9468
5.11504e+07,-70.727
5.12171e+07,-70.918
5.12838e+07,-70.2162
5.13505e+07,-70.0426
5.14171e+07,-70.5326
5.14838e+07,-70.9754
5.15505e+07,-71.3953
5.16172e+07,-70.7192
5.16839e+07,-68.581
5.17506e+07,-69.7801
5.18173e+07,-71.9093
5.1884e+07,-71.0155
5.19507e+07,-69.8907
5.20173e+07,-69.4273
5.2084e+07,-70.531
5.21507e+07,-69.0784
5.22174e+07,-68.687
5.22841e+07,-70.2896
5.23508e+07,-69.8856
5.24175e+07,-70.8356
5.24842e+07,-71.567
5.25509e+07,-71.9067
5.26175e+07,-70.724
5.26842e+07,-71.2816
5.27509e+07,-70.3971
5.28176e+07,-71.6041
5.28843e+07,-71.1715
5.2951e+07,-71.9
5.30177e+07,-71.4648
5.30844e+07,-70.1204
5.31511e+07,-71.5339
5.32177e+07,-71.2997
5.32844e+07,-71.1208
5.33511e+07,-72.9144
5.34178e+07,-71.1071
5.34845e+07,-70.7812
5.35512e+07,-70.3644
5.36179e+07,-72.0008
5.36846e+07,-72.0305
5.37513e+07,-71.0698
5.38179e+07,-72.1576
5.38846e+07,-71.9038
5.39513e+07,-72.4455
5.4018e+07,-71.6309
5.40847e+07,-72.5392
5.41514e+07,-70.8774
5.42181e+07,-71.9114
5.42848e+07,-72.7315
5.43515e+07,-72.1414
5.44181e+07,-72.8195
5.44848e+07,-71.8301
5.45515e+07,-71.9618
5.46182e+07,-72.5274
5.46849e+07,-72.2974
5.47516e+07,-71.2304
5.48183e+07,-71.8182
5.4885e+07,-72.3622
5.49517e+07,-73.6353
5.50183e+07,-72.5302
5.5085e+07,-73.5489
5.51517e+07,-72.6425
5.52184e+07,-72.7989
5.52851e+07,-70.8731
5.53518e+07,-72.339
5.54185e+07,-72.8292
5.54852e+07,-72.8543
5.55519e+07,-73.4166
5.56185e+07,-72.2034
5.56852e+07,-72.4153
5.57519e+07,-73.0497
5.58186e+07,-71.3644
5.58853e+07,-72.6202
5.5952e+07,-72.351
5.60187e+07,-72.965
5.60854e+07,-72.7256
5.61521e+07,-72.5942
5.62187e+07,-72.5638
5.62854e+07,-72.729
5.63521e+07,-71.4067
5.64188e+07,-72.9683
5.64855e+07,-71.8479
5.65522e+07,-71.7936
5.66189e+07,-71.5572
5.66856e+07,-70.7508
5.67523e+07,-71.3849
5.68189e+07,-72.6576
5.68856e+07,-72.3275
5.69523e+07,-71.913
5.7019e+07,-72.162
5.70857e+07,-72.432
5.71524e+07,-72.6186
5.72191e+07,-72.5098
5.72858e+07,-72.3682
5.73525e+07,-71.4249
5.74191e+07,-70.3319
5.74858e+07,-72.3618
5.75525e+07,-71.8636
5.76192e+07,-72.9458
5.76859e+07,-71.8168
5.77526e+07,-71.1203
5.78193e+07,-72.0792
5.7886e+07,-70.4204
5.79527e+07,-72.368
5.80193e+07,-72.3432
5.8086e+07,-71.4533
5.81527e+07,-72.6488
5.82194e+07,-71.4228
5.82861e+07,-72.2638
5.83528e+07,-70.9756
5.84195e+07,-71.2418
5.84862e+07,-70.8468
5.85529e+07,-70.9627
5.86195e+07,-71.0215
5.86862e+07,-70.942
5.87529e+07,-71.7711
5.88196e+07,-70.1441
5.88863e+07,-70.8102
5.8953e+07,-70.6732
5.90197e+07,-71.6628
5.90864e+07,-71.4349
5.91531e+07,-72.1639
5.92197e+07,-71.5452
5.92864e+07,-71.4674
5.93531e+07,-71.1189
5.94198e+07,-71.9968
5.94865e+07,-70.6712
5.95532e+07,-71.4599
5.96199e+07,-72.1986
5.96866e+07,-71.5839
5.97533e+07,-70.5595
5.98199e+07,-72.297
5.98866e+07,-72.241
5.99533e+07,-72.8842
6.002e+07,-72.8811
6.00867e+07,-72.5853
6.01534e+07,-72.2042
6.02201e+07,-73.3915
6.02868e+07,-72.325
6.03535e+07,-73.4774
6.04201e+07,-72.977
6.04868e+07,-72.9883
6.05535e+07,-73.2244
6.06202e+07,-72.3395
6.06869e+07,-72.448
6.07536e+07,-73.315
6.08203e+07,-70.7044
6.0887e+07,-72.3485
6.09537e+07,-73.441
6.10203e+07,-72.5123
6.1087e+07,-72.8563
6.11537e+07,-73.2617
6.12204e+07,-73.3991
6.12871e+07,-72.7507
6.13538e+07,-73.4284
6.14205e+07,-71.5944
6.14872e+07,-73.2457
6.15539e+07,-72.7923
6.16205e+07,-73.6884
6.16872e+07,-72.826
6.17539e+07,-72.3407
6.18206e+07,-72.5386
6.18873e+07,-72.4996
6.1954e+07,-73.3908
6.20207e+07,-72.9716
6.20874e+07,-73.1887
6.21541e+07,-73.5377
6.22207e+07,-72.995
6.22874e+07,-71.9437
6.23541e+07,-71.8667
6.24208e+07,-73.327
6.24875e+07,-73.2099
6.25542e+07,-72.4438
6.26209e+07,-72.3562
6.26876e+07,-73.5519
6.27543e+07,-72.6042
6.28209e+07,-73.3076
6.28876e+07,-70.774
6.29543e+07,-69.6241
6.3021e+07,-72.0143
6.30877e+07,-72.5516
6.31544e+07,-73.0447
6.32211e+07,-71.7593
6.32878e+07,-72.7882
6.33545e+07,-73.3023
6.34211e+07,-72.2313
6.34878e+07,-72.3803
6.35545e+07,-71.8901
6.36212e+07,-71.8077
6.36879e+07,-72.5533
6.37546e+07,-72.3697
6.38213e+07,-72.2718
6.3888e+07,-72.4684
6.39547e+07,-72.9557
6.40213e+07,-72.0989
6.4088e+07,-72.3476
6.41547e+07,-72.6504
6.42214e+07,-72.6512
6.42881e+07,-72.2828
6.43548e+07,-72.4674
6.44215e+07,-72.42
6.44882e+07,-71.499
6.45549e+07,-72.0487
6.46215e+07,-72.6192
6.46882e+07,-71.0535
6.47549e+07,-71.7603
6.48216e+07,-71.8736
6.48883e+07,-71.7467
6.4955e+07,-71.0832
6.50217e+07,-72.5696
6.50884e+07,-72.3891
6.51551e+07,-72.1595
6.52217e+07,-72.5606
6.52884e+07,-71.6654
6.53551e+07,-72.2036
6.54218e+07,-72.9303
6.54885e+07,-71.9899
6.55552e+07,-72.1111
6.56219e+07,-70.418
6.56886e+07,-73.0721
6.57553e+07,-72.8458
6.58219e+07,-72.6709
6.58886e+07,-72.9308
6.59553e+07,-72.2051
6.6022e+07,-72.1998
6.60887e+07,-72.1178
6.61554e+07,-72.7963
6.62221e+07,-72.2586
6.62888e+07,-72.0274
6.63555e+07,-73.2444
6.64221e+07,-73.0003
6.64888e+07,-73.0091
6.65555e+07,-72.1274
6.66222e+07,-73.5056
6.66889e+07,-71.6696
6.67556e+07,-73.8063
6.68223e+07,-73.9858
6.6889e+07,-72.9876
6.69557e+07,-73.5705
6.70223e+07,-72.9853
6.7089e+07,-72.4135
6.71557e+07,-73.2438
6.72224e+07,-73.2719
6.72891e+07,-72.7441
6.73558e+07,-73.7168
6.74225e+07,-72.9691
6.74892e+07,-70.8595
6.75559e+07,-73.3818
6.76225e+07,-74.1034
6.76892e+07,-70.786
6.77559e+07,-73.3569
6.78226e+07,-73.5781
6.78893e+07,-72.8324
6.7956e+07,-73.6068
6.80227e+07,-73.0732
6.80894e+07,-72.3421
6.81561e+07,-72.7299
6.82227e+07,-73.206
6.82894e+07,-73.2028
6.83561e+07,-72.3352
6.84228e+07,-73.3878
6.84895e+07,-72.7749
6.85562e+07,-73.3647
6.86229e+07,-74.0839
6.86896e+07,-73.5209
6.87563e+07,-72.9525
6.88229e+07,-72.3943
6.88896e+07,-73.3004
6.89563e+07,-73.9905
6.9023e+07,-72.1796
6.90897e+07,-70.9733
6.91564e+07,-73.1895
6.92231e+07,-72.4981
6.92898e+07,-73.355
6.93565e+07,-72.4076
6.94231e+07,-73.6655
6.94898e+07,-72.761
6.95565e+07,-73.0218
6.96232e+07,-72.7266
6.96899e+07,-72.2788
6.97566e+07,-72.4455
6.98233e+07,-73.6454
6.989e+07,-71.6785
6.99567e+07,-72.2318
7.00233e+07,-69.3553
7.009e+07,-72.877
7.01567e+07,-70.1634
7.02234e+07,-72.6379
7.02901e+07,-71.2528
7.03568e+07,-72.4895
7.04235e+07,-72.3996
7.04902e+07,-72.0065
7.05569e+07,-71.019
7.06235e+07,-68.8998
7.06902e+07,-69.2113
7.07569e+07,-72.0649
7.08236e+07,-72.7433
7.08903e+07,-72.7389
7.0957e+07,-72.8705
7.10237e+07,-72.0321
7.10904e+07,-72.1569
7.11571e+07,-72.166
7.12237e+07,-72.4208
7.12904e+07,-71.2638
7.13571e+07,-72.214
7.14238e+07,-71.4204
7.14905e+07,-72.1215
7.15572e+07,-73.6053
7.16239e+07,-71.3847
7.16906e+07,-72.3667
7.17573e+07,-73.2871
7.18239e+07,-72.0154
7.18906e+07,-71.3038
7.19573e+07,-72.6758
7.2024e+07,-72.6091
7.20907e+07,-73.0761
7.21574e+07,-72.6884
7.22241e+07,-73.9586
7.22908e+07,-72.554
7.23575e+07,-73.1466
7.24241e+07,-72.6188
7.24908e+07,-72.4051
7.25575e+07,-73.7715
7.26242e+07,-72.8085
7.26909e+07,-71.7823
7.27576e+07,-73.2181
7.28243e+07,-72.6412
7.2891e+07,-72.0193
7.29577e+07,-73.4734
7.30243e+07,-73.5574
7.3091e+07,-73.1317
7.31577e+07,-72.0101
7.32244e+07,-72.6676
7.32911e+07,-73.9388
7.33578e+07,-73.3494
7.34245e+07,-72.8285
7.34912e+07,-73.5993
7.35579e+07,-73.0437
7.36245e+07,-73.8905
7.36912e+07,-72.5713
7.37579e+07,-73.2885
7.38246e+07,-72.8164
7.38913e+07,-74.5232
7.3958e+07,-71.9557
7.40247e+07,-73.557
7.40914e+07,-72.9441
7.41581e+07,-72.6007
7.42247e+07,-73.8949
7.42914e+07,-73.8225
7.43581e+07,-73.6327
7.44248e+07,-73.5088
7.44915e+07,-74.3479
7.45582e+07,-74.008
7.46249e+07,-73.1255
7.46916e+07,-74.1015
7.47583e+07,-73.8953
7.48249e+07,-73.9866
7.48916e+07,-72.7863
7.49583e+07,-71.7147
7.5025e+07,-73.0407
7.50917e+07,-73.593
7.51584e+07,-73.3124
7.52251e+07,-74.0825
7.52918e+07,-73.0014
7.53585e+07,-73.5427
7.54251e+07,-72.2674
7.54918e+07,-74.0729
7.55585e+07,-72.4293
7.56252e+07,-73.5083
7.56919e+07,-73.5233
7.57586e+07,-73.1508
7.58253e+07,-74.0991
7.5892e+07,-74.185
7.59587e+07,-73.6723
7.60253e+07,-73.0345
7.6092e+07,-73.2367
7.61587e+07,-72.481
7.62254e+07,-72.4156
7.62921e+07,-73.1063
7.63588e+07,-73.0053
7.64255e+07,-73.361
7.64922e+07,-74.3873
7.65589e+07,-72.2773
7.66255e+07,-73.5332
7.66922e+07,-73.1777
7.67589e+07,-73.2099
7.68256e+07,-72.3146
7.68923e+07,-73.7274
7.6959e+07,-73.3486
7.70257e+07,-74.0344
7.70924e+07,-73.4705
7.71591e+07,-72.6406
7.72257e+07,-73.6931
7.72924e+07,-73.306
7.73591e+07,-73.7369
7.74258e+07,-73.6269
7.74925e+07,-72.7811
7.75592e+07,-73.5475
7.76259e+07,-72.6499
7.76926e+07,-73.3612
7.77593e+07,-73.5929
7.78259e+07,-73.7916
7.78926e+07,-74.1716
7.79593e+07,-74.0199
7.8026e+07,-73.5171
7.80927e+07,-74.4885
7.81594e+07,-74.0574
7.82261e+07,-73.9032
7.82928e+07,-74.3754
7.83595e+07,-73.7803
7.84261e+07,-74.4261
7.84928e+07,-74.2498
7.85595e+07,-74.7468
7.86262e+07,-73.8017
7.86929e+07,-73.3731
7.87596e+07,-74.8025
7.88263e+07,-73.5821
7.8893e+07,-75.0987
7.89597e+07,-74.8752
7.90263e+07,-75.2796
7.9093e+07,-74.7607
7.91597e+07,-74.0937
7.92264e+07,-74.3372
7.92931e+07,-74.5958
7.93598e+07,-74.0725
7.94265e+07,-73.1831
7.94932e+07,-74.7137
7.95599e+07,-74.989
7.96265e+07,-75.2682
7.96932e+07,-72.7802
7.97599e+07,-73.8225
7.98266e+07,-74.7438
7.98933e+07,-75.2922
7.996e+07,-74.6293
8.00267e+07,-75.0732
8.00934e+07,-74.985
8.01601e+07,-75.03
8.02267e+07,-74.705
8.02934e+07,-73.9665
8.03601e+07,-74.8185
8.04268e+07,-75.409
8.04935e+07,-74.5483
8.05602e+07,-74.913
8.06269e+07,-75.4623
8.06936e+07,-74.2889
8.07603e+07,-74.9282
8.08269e+07,-74.3767
8.08936e+07,-74.9891
8.09603e+07,-75.3769
8.1027e+07,-75.5485
8.10937e+07,-75.1744
8.11604e+07,-75.2204
8.12271e+07,-74.8466
8.12938e+07,-75.0587
8.13605e+07,-75.0955
8.14271e+07,-74.9148
8.14938e+07,-74.8496
8.15605e+07,-76.32
8.16272e+07,-75.8096
8.16939e+07,-75.1802
8.17606e+07,-75.6657
8.18273e+07,-76.0955
8.1894e+07,-76.1544
8.19607e+07,-75.8293
8.20273e+07,-76.413
8.2094e+07,-75.9477
8.21607e+07,-76.2666
8.22274e+07,-76.1404
8.22941e+07,-76.1649
8.23608e+07,-76.5242
8.24275e+07,-75.096
8.24942e+07,-76.0752
8.25609e+07,-76.4149
8.26275e+07,-76.1048
8.26942e+07,-76.3823
8.27609e+07,-76.6465
8.28276e+07,-76.2014
8.28943e+07,-77.63
8.2961e+07,-76.8012
8.30277e+07,-76.4831
8.30944e+07,-77.2754
8.31611e+07,-77.6303
8.32277e+07,-77.3713
8.32944e+07,-75.8175
8.33611e+07,-77.7783
8.34278e+07,-77.4164
8.34945e+07,-77.0753
8.35612e+07,-77.821
8.36279e+07,-77.2823
8.36946e+07,-78.1627
8.37613e+07,-78.636
8.38279e+07,-77.582
8.38946e+07,-79.0389
8.39613e+07,-77.893
8.4028e+07,-77.8573
8.40947e+07,-78.1137
8.41614e+07,-78.1616
8.42281e+07,-77.5134
8.42948e+07,-77.4389
8.43615e+07,-78.634
8.44281e+07,-78.1112
8.44948e+07,-78.1276
8.45615e+07,-78.8743
8.46282e+07,-78.2557
8.46949e+07,-77.9703
8.47616e+07,-77.2497
8.48283e+07,-78.0937
8.4895e+07,-77.7251
8.49617e+07,-78.4695
8.50283e+07,-78.2013
8.5095e+07,-78.6234
8.51617e+07,-79.97
8.52284e+07,-79.1615
8.52951e+07,-79.085
8.53618e+07,-79.2592
8.54285e+07,-78.9207
8.54952e+07,-78.7651
8.55619e+07,-78.2414
8.56285e+07,-80.7749
8.56952e+07,-80.3295
8.57619e+07,-80.0678
8.58286e+07,-78.6153
8.58953e+07,-80.4095
8.5962e+07,-80.7494
8.60287e+07,-80.1755
8.60954e+07,-79.7036
8.61621e+07,-80.2638
8.62287e+07,-81.184
8.62954e+07,-80.9759
8.63621e+07,-81.1315
8.64288e+07,-80.6904
8.64955e+07,-81.272
8.65622e+07,-80.6537
8.66289e+07,-80.9533
8.66956e+07,-81.6948
8.67623e+07,-79.7218
8.68289e+07,-80.8949
8.68956e+07,-82.0895
8.69623e+07,-80.9945
8.7029e+07,-81.0176
8.70957e+07,-81.6808
8.71624e+07,-80.6104
8.72291e+07,-81.0229
8.72958e+07,-81.7711
8.73625e+07,-81.8633
8.74291e+07,-81.6966
8.74958e+07,-81.8214
8.75625e+07,-82.0084
8.76292e+07,-81.7686
8.76959e+07,-81.2909
8.77626e+07,-80.5448
8.78293e+07,-81.4555
8.7896e+07,-81.6022
8.79627e+07,-80.8233
8.80293e+07,-81.8919
8.8096e+07,-81.2079
8.81627e+07,-81.204
8.82294e+07,-81.8979
8.82961e+07,-80.2416
8.83628e+07,-81.8223
8.84295e+07,-82.0513
8.84962e+07,-81.4257
8.85629e+07,-80.9858
8.86295e+07,-81.8538
8.86962e+07,-80.7947
8.87629e+07,-81.7785
8.88296e+07,-81.0993
8.88963e+07,-81.4832
8.8963e+07,-82.3935
8.90297e+07,-81.2356
8.90964e+07,-81.2629
8.91631e+07,-80.6536
8.92297e+07,-82.1953
8.92964e+07,-81.3984
8.93631e+07,-81.8595
8.94298e+07,-81.667
8.94965e+07,-82.5093
8.95632e+07,-81.1143
8.96299e+07,-80.8772
8.96966e+07,-81.7567
8.97633e+07,-81.3596
8.98299e+07,-81.6749
8.98966e+07,-82.2448
8.99633e+07,-82.3266
9.003e+07,-82.139
9.00967e+07,-80.3059
9.01634e+07,-81.7311
9.02301e+07,-82.2423
9.02968e+07,-82.1254
9.03635e+07,-81.8781
9.04301e+07,-82.1399
9.04968e+07,-80.185
9.05635e+07,-82.0965
9.06302e+07,-81.578
9.06969e+07,-81.007
9.07636e+07,-81.9352
9.08303e+07,-82.0295
9.0897e+07,-82.2373
9.09637e+07,-81.6591
9.10303e+07,-81.4208
9.1097e+07,-80.7175
9.11637e+07,-81.2858
9.12304e+07,-81.9468
9.12971e+07,-82.2891
9.13638e+07,-82.4913
9.14305e+07,-81.2072
9.14972e+07,-82.0703
9.15639e+07,-82.1817
9.16305e+07,-81.2614
9.16972e+07,-81.6829
9.17639e+07,-80.8446
9.18306e+07,-81.931
9.18973e+07,-81.8032
9.1964e+07,-79.753
9.20307e+07,-81.5531
9.20974e+07,-81.6579
9.21641e+07,-81.2818
9.22307e+07,-80.8045
9.22974e+07,-81.4935
9.23641e+07,-81.3825
9.24308e+07,-81.389
9.24975e+07,-81.4956
9.25642e+07,-81.9671
9.26309e+07,-80.9654
9.26976e+07,-82.0307
9.27643e+07,-82.282
9.28309e+07,-81.4501
9.28976e+07,-82.3441
9.29643e+07,-80.9765
9.3031e+07,-81.2753
9.30977e+07,-82.4944
9.31644e+07,-83.2952
9.32311e+07,-82.255
9.32978e+07,-82.2662
9.33645e+07,-81.2414
9.34311e+07,-81.2513
9.34978e+07,-80.7718
9.35645e+07,-81.8766
9.36312e+07,-81.8312
9.36979e+07,-81.4937
9.37646e+07,-81.9922
9.38313e+07,-82.349
9.3898e+07,-81.9419
9.39647e+07,-82.1365
9.40313e+07,-82.6706
9.4098e+07,-82.4668
9.41647e+07,-82.5673
9.42314e+07,-82.4377
9.42981e+07,-81.1269
9.43648e+07,-81.8033
9.44315e+07,-81.8251
9.44982e+07,-81.9336
9.45649e+07,-81.6285
9.46315e+07,-81.4152
9.46982e+07,-82.1233
9.47649e+07,-81.2448
9.48316e+07,-82.1339
9.48983e+07,-81.367
9.4965e+07,-82.4002
9.50317e+07,-82.3997
9.50984e+07,-80.8964
9.51651e+07,-81.8047
9.52317e+07,-82.2596
9.52984e+07,-81.4494
9.53651e+07,-81.6006
9.54318e+07,-81.9531
9.54985e+07,-81.3589
9.55652e+07,-82.3439
9.56319e+07,-81.3155
9.56986e+07,-81.7598
9.57653e+07,-82.8827
9.58319e+07,-82.2394
9.58986e+07,-81.3382
9.59653e+07,-81.3803
9.6032e+07,-81.4798
9.60987e+07,-82.3757
9.61654e+07,-83.0545
9.62321e+07,-81.1434
9.62988e+07,-81.7888
9.63655e+07,-81.703
9.64321e+07,-81.651
9.64988e+07,-82.0866
9.65655e+07,-82.0017
9.66322e+07,-81.8837
9.66989e+07,-82.28
9.67656e+07,-80.931
9.68323e+07,-79.9094
9.6899e+07,-81.6512
9.69657e+07,-81.4584
9.70323e+07,-82.0173
9.7099e+07,-81.9901
9.71657e+07,-81.6419
9.72324e+07,-81.5647
9.72991e+07,-80.4317
9.73658e+07,-81.2183
9.74325e+07,-82.2195
9.74992e+07,-82.0138
9.75659e+07,-80.8746
9.76325e+07,-82.1322
9.76992e+07,-82.066
9.77659e+07,-81.4417
9.78326e+07,-81.9237
9.78993e+07,-82.0723
9.7966e+07,-81.8398
9.80327e+07,-81.7571
9.80994e+07,-81.0812
9.81661e+07,-81.9973
9.82327e+07,-82.32
9.82994e+07,-83.2082
9.83661e+07,-81.9767
9.84328e+07,-81.3051
9.84995e+07,-80.8307
9.85662e+07,-79.5926
9.86329e+07,-82.1597
9.86996e+07,-80.9537
9.87663e+07,-81.6262
9.88329e+07,-82.5853
9.88996e+07,-81.0786
9.89663e+07,-81.559
9.9033e+07,-80.5828
9.90997e+07,-82.0248
9.91664e+07,-82.2892
9.92331e+07,-82.0507
9.92998e+07,-82.4761
9.93665e+07,-82.0382
9.94331e+07,-81.5591
9.94998e+07,-81.3006
9.95665e+07,-81.8918
9.96332e+07,-81.8273
9.96999e+07,-82.6075
9.97666e+07,-81.9853
9.98333e+07,-81.2068
9.99e+07,-81.2238
9.99667e+07,-81.1501
1.00033e+08,-80.9336
1.001e+08,-80.2872
1.00167e+08,-83.0634
1.00233e+08,-81.7966
1.003e+08,-82.3841
1.00367e+08,-81.5995
1.00433e+08,-81.2303
1.005e+08,-82.5279
1.00567e+08,-81.8994
1.00634e+08,-82.4217
1.007e+08,-80.467
1.00767e+08,-81.707
1.00834e+08,-81.7883
1.009e+08,-81.7245
1.00967e+08,-81.7612
1.01034e+08,-81.0971
1.011e+08,-81.1173
1.01167e+08,-80.9726
1.01234e+08,-82.0936
1.013e+08,-81.2554
1.01367e+08,-82.7775
1.01434e+08,-82.0882
1.01501e+08,-82.1188
1.01567e+08,-80.9221
1.01634e+08,-81.1619
1.01701e+08,-82.4905
1.01767e+08,-81.538
1.01834e+08,-80.7225
1.01901e+08,-80.2894
1.01967e+08,-81.4245
1.02034e+08,-82.5531
1.02101e+08,-82.0677
1.02167e+08,-82.7089
1.02234e+08,-81.3974
1.02301e+08,-81.4724
1.02367e+08,-82.058
1.02434e+08,-81.4678
1.02501e+08,-81.5762
1.02568e+08,-81.5977
1.02634e+08,-81.2348
1.02701e+08,-81.857
1.02768e+08,-82.1952
1.02834e+08,-81.6729
1.02901e+08,-81.7542
1.02968e+08,-81.9422
1.03034e+08,-82.026
1.03101e+08,-79.7195
1.03168e+08,-81.2696
1.03234e+08,-81.527
1.03301e+08,-80.926
1.03368e+08,-80.3734
1.03434e+08,-81.9045
1.03501e+08,-80.0997
1.03568e+08,-79.8259
1.03635e+08,-80.8896
1.03701e+08,-81.2023
1.03768e+08,-82.6595
1.03835e+08,-81.6765
1.03901e+08,-81.3207
1.03968e+08,-81.02
1.04035e+08,-81.4992
1.04101e+08,-81.8729
1.04168e+08,-81.8838
1.04235e+08,-81.6772
1.04301e+08,-81.6251
1.04368e+08,-80.9384
1.04435e+08,-82.7043
1.04502e+08,-81.6162
1.04568e+08,-81.7379
1.04635e+08,-82.0449
1.04702e+08,-80.9495
1.04768e+08,-81.4286
1.04835e+08,-81.8712
1.04902e+08,-81.4061
1.04968e+08,-81.84
1.05035e+08,-81.38
1.05102e+08,-81.4082
1.05168e+08,-81.6776
1.05235e+08,-81.8229
1.05302e+08,-81.0306
1.05368e+08,-82.1482
1.05435e+08,-82.1909
1.05502e+08,-82.0965
1.05569e+08,-82.8133
1.05635e+08,-81.4981
1.05702e+08,-82.1028
1.05769e+08,-81.7177
1.05835e+08,-81.8259
1.05902e+08,-81.8556
1.05969e+08,-80.9026
1.06035e+08,-80.4109
1.06102e+08,-82.2253
1.06169e+08,-80.3843
1.06235e+08,-82.2798
1.06302e+08,-82.7112
1.06369e+08,-81.5838
1.06435e+08,-81.8934
1.06502e+08,-82.4019
1.06569e+08,-83.1023
1.06636e+08,-82.3727
1.06702e+08,-81.778
1.06769e+08,-80.951
1.06836e+08,-81.9476
1.06902e+08,-81.9318
1.06969e+08,-81.985
1.07036e+08,-81.9346
1.07102e+08,-82.2296
1.07169e+08,-81.2395
1.07236e+08,-82.6584
1.07302e+08,-81.6876
1.07369e+08,-81.4163
1.07436e+08,-81.7875
1.07503e+08,-81.3257
1.07569e+08,-81.5017
1.07636e+08,-82.4135
1.07703e+08,-81.1094
1.07769e+08,-82.0407
1.07836e+08,-81.8639
1.07903e+08,-81.1323
1.07969e+08,-81.3009
1.08036e+08,-81.3682
1.08103e+08,-81.5855
1.08169e+08,-81.4573
1.08236e+08,-81.6806
1.08303e+08,-82.06
1.08369e+08,-81.3157
1.08436e+08,-81.8594
1.08503e+08,-82.3226
1.0857e+08,-82.2186
1.08636e+08,-81.622
1.08703e+08,-81.6437
1.0877e+08,-81.3448
1.08836e+08,-81.5323
1.08903e+08,-81.9628
1.0897e+08,-81.226
1.09036e+08,-83.1145
1.09103e+08,-81.5743
1.0917e+08,-82.069
1.09236e+08,-82.1466
1.09303e+08,-81.5398
1.0937e+08,-82.0909
1.09436e+08,-81.1138
1.09503e+08,-81.9775
1.0957e+08,-82.645
1.09637e+08,-82.2901
1.09703e+08,-82.8162
1.0977e+08,-82.1623
1.09837e+08,-81.9289
1.09903e+08,-81.6792
1.0997e+08,-81.1517
1.10037e+08,-79.8554
1.10103e+08,-80.9568
1.1017e+08,-80.6368
1.10237e+08,-82.1431
1.10303e+08,-80.9382
1.1037e+08,-81.7056
1.10437e+08,-81.4041
1.10504e+08,-81.7495
1.1057e+08,-80.4639
1.10637e+08,-80.8744
1.10704e+08,-81.46
1.1077e+08,-82.4265
1.10837e+08,-82.4994
1.10904e+08,-80.8216
1.1097e+08,-81.4471
1.11037e+08,-81.6707
1.11104e+08,-81.6554
1.1117e+08,-81.6141
1.11237e+08,-80.9312
1.11304e+08,-82.3136
1.1137e+08,-81.6237
1.11437e+08,-81.7387
1.11504e+08,-81.527
1.11571e+08,-80.6793
1.11637e+08,-81.0938
1.11704e+08,-81.7894
1.11771e+08,-80.5166
1.11837e+08,-82.0218
1.11904e+08,-81.7165
1.11971e+08,-81.7573
1.12037e+08,-82.5355
1.12104e+08,-81.0105
1.12171e+08,-81.4454
1.12237e+08,-80.893
1.12304e+08,-82.6787
1.12371e+08,-82.5701
1.12437e+08,-82.6401
1.12504e+08,-82.3811
1.12571e+08,-82.0786
1.12638e+08,-82.3438
1.12704e+08,-81.1839
1.12771e+08,-81.5505
1.12838e+08,-81.872
1.12904e+08,-80.4918
1.12971e+08,-82.2971
1.13038e+08,-79.8028
1.13104e+08,-81.9813
1.13171e+08,-81.4488
1.13238e+08,-82.1836
1.13304e+08,-82.2426
1.13371e+08,-82.0569
1.13438e+08,-80.8669
1.13505e+08,-81.8365
1.13571e+08,-81.6294
1.13638e+08,-81.6438
1.13705e+08,-81.8961
1.13771e+08,-81.4917
1.13838e+08,-82.2466
1.13905e+08,-81.4469
1.13971e+08,-80.6348
1.14038e+08,-82.1855
1.14105e+08,-81.5075
1.14171e+08,-81.434
1.14238e+08,-82.3157
1.14305e+08,-80.7422
1.14371e+08,-80.5855
1.14438e+08,-80.8052
1.14505e+08,-81.3736
1.14572e+08,-81.8972
1.14638e+08,-81.9698
1.14705e+08,-81.9346
1.14772e+08,-81.5098
1.14838e+08,-81.9298
1.14905e+08,-81.91
1.14972e+08,-81.7423
1.15038e+08,-80.8413
1.15105e+08,-81.897
1.15172e+08,-82.173
1.15238e+08,-81.7856
1.15305e+08,-81.2886
1.15372e+08,-82.0341
1.15438e+08,-80.6869
1.15505e+08,-81.5484
1.15572e+08,-80.3876
1.15639e+08,-81.9662
1.15705e+08,-82.0981
1.15772e+08,-81.0384
1.15839e+08,-80.9206
1.15905e+08,-82.8463
1.15972e+08,-82.2585
1.16039e+08,-81.8137
1.16105e+08,-81.8742
1.16172e+08,-81.3036
1.16239e+08,-81.4914
1.16305e+08,-82.3042
1.16372e+08,-81.7544
1.16439e+08,-81.5783
1.16506e+08,-81.8407
1.16572e+08,-82.072
1.16639e+08,-81.9471
1.16706e+08,-80.3984
1.16772e+08,-82.4835
1.16839e+08,-81.1072
1.16906e+08,-81.4426
1.16972e+08,-82.0925
1.17039e+08,-80.9701
1.17106e+08,-82.5098
1.17172e+08,-81.6284
1.17239e+08,-82.4431
1.17306e+08,-82.4795
1.17372e+08,-79.7403
1.17439e+08,-81.7653
1.17506e+08,-81.8944
1.17573e+08,-82.4652
1.17639e+08,-81.4044
1.17706e+08,-81.9429
1.17773e+08,-81.2701
1.17839e+08,-81.3198
1.17906e+08,-82.1288
1.17973e+08,-82.3562
1.18039e+08,-82.511
1.18106e+08,-82.1313
1.18173e+08,-81.1218
1.18239e+08,-82.7098
1.18306e+08,-82.4679
1.18373e+08,-82.0038
1.18439e+08,-81.5374
1.18506e+08,-80.209
1.18573e+08,-81.8099
1.1864e+08,-81.6585
1.18706e+08,-81.4986
1.18773e+08,-80.569
1.1884e+08,-81.4463
1.18906e+08,-81.7392
1.18973e+08,-81.9103
1.1904e+08,-80.9481
1.19106e+08,-82.0569
1.19173e+08,-81.1318
1.1924e+08,-81.2627
1.19306e+08,-82.1896
1.19373e+08,-81.4936
1.1944e+08,-80.7609
1.19507e+08,-81.4816
1.19573e+08,-82.5202
1.1964e+08,-83.1275
1.19707e+08,-81.9628
1.19773e+08,-80.6912
1.1984e+08,-81.1163
1.19907e+08,-80.7237
1.19973e+08,-81.5443
1.2004e+08,-80.9097
1.20107e+08,-81.6812
1.20173e+08,-81.188
1.2024e+08,-82.0523
1.20307e+08,-81.5863
1.20373e+08,-82.3382
1.2044e+08,-81.8608
1.20507e+08,-81.9606
1.20574e+08,-81.4626
1.2064e+08,-81.6509
1.20707e+08,-81.8206
1.20774e+08,-81.4647
1.2084e+08,-82.6188
1.20907e+08,-81.915
1.20974e+08,-82.7189
1.2104e+08,-81.0792
1.21107e+08,-81.9755
1.21174e+08,-82.6625
1.2124e+08,-82.3236
1.21307e+08,-81.1299
1.21374e+08,-81.6867
1.2144e+08,-81.777
1.21507e+08,-82.639
1.21574e+08,-81.8408
1.21641e+08,-81.3816
1.21707e+08,-81.7902
1.21774e+08,-81.8355
1.21841e+08,-82.5821
1.21907e+08,-79.8239
1.21974e+08,-82.2616
1.22041e+08,-81.8373
1.22107e+08,-81.5802
1.22174e+08,-81.6432
1.22241e+08,-81.7179
1.22307e+08,-81.2432
1.22374e+08,-81.5337
1.22441e+08,-81.4926
1.22508e+08,-81.4298
1.22574e+08,-81.7799
1.22641e+08,-81.6023
1.22708e+08,-81.0073
1.22774e+08,-81.8051
1.22841e+08,-80.7658
1.22908e+08,-81.0757
1.22974e+08,-82.23
1.23041e+08,-81.3784
1.23108e+08,-81.6324
1.23174e+08,-81.524
1.23241e+08,-82.8385
1.23308e+08,-82.2879
1.23374e+08,-81.835
1.23441e+08,-82.2185
1.23508e+08,-79.9435
1.23575e+08,-81.6552
1.23641e+08,-82.0661
1.23708e+08,-81.6843
1.23775e+08,-81.9051
1.23841e+08,-80.1059
1.23908e+08,-81.8579
1.23975e+08,-82.1626
1.24041e+08,-81.191
1.24108e+08,-82.2496
1.24175e+08,-82.33
1.24241e+08,-82.1606
1.24308e+08,-80.0554
1.24375e+08,-81.0402
1.24441e+08,-82.5501
1.24508e+08,-81.0392
1.24575e+08,-82.3351
1.24642e+08,-81.6961
1.24708e+08,-81.5014
1.24775e+08,-82.3539
1.24842e+08,-82.2764
1.24908e+08,-80.6025
1.24975e+08,-81.6372
1.25042e+08,-81.4511
1.25108e+08,-81.4395
1.25175e+08,-82.4616
1.25242e+08,-81.8325
1.25308e+08,-82.3052
1.25375e+08,-81.9825
1.25442e+08,-82.8005
1.25509e+08,-82.167
1.25575e+08,-81.0873
1.25642e+08,-82.0866
1.25709e+08,-82.4165
1.25775e+08,-81.7711
1.25842e+08,-81.2131
1.25909e+08,-81.7854
1.25975e+08,-81.4294
1.26042e+08,-81.7577
1.26109e+08,-82.2548
1.26175e+08,-82.3557
1.26242e+08,-81.4641
1.26309e+08,-82.2613
1.26375e+08,-81.4154
1.26442e+08,-81.8851
1.26509e+08,-81.3487
1.26576e+08,-82.4264
1.26642e+08,-81.903
1.26709e+08,-81.5383
1.26776e+08,-81.9994
1.26842e+08,-81.8282
1.26909e+08,-80.7931
1.26976e+08,-81.0909
1.27042e+08,-81.5693
1.27109e+08,-81.565
1.27176e+08,-82.6301
1.27242e+08,-79.799
1.27309e+08,-81.7253
1.27376e+08,-81.5817
1.27442e+08,-82.3014
1.27509e+08,-82.0253
1.27576e+08,-81.6139
1.27643e+08,-79.9557
1.27709e+08,-81.8063
1.27776e+08,-81.8327
1.27843e+08,-81.964
1.27909e+08,-81.8471
1.27976e+08,-80.3559
1.28043e+08,-81.6142
1.28109e+08,-82.0879
1.28176e+08,-81.8066
1.28243e+08,-80.1613
1.28309e+08,-81.7674
1.28376e+08,-82.6718
1.28443e+08,-82.3061
1.2851e+08,-81.4508
1.28576e+08,-81.4613
1.28643e+08,-81.2856
1.2871e+08,-81.3286
1.28776e+08,-82.3852
1.28843e+08,-82.4383
1.2891e+08,-79.3736
1.28976e+08,-82.137
1.29043e+08,-81.8309
1.2911e+08,-81.8922
1.29176e+08,-81.632
1.29243e+08,-81.8487
1.2931e+08,-81.4817
1.29376e+08,-81.7479
1.29443e+08,-81.7856
1.2951e+08,-81.8776
1.29577e+08,-81.9744
1.29643e+08,-82.2808
1.2971e+08,-81.8374
1.29777e+08,-81.1124
1.29843e+08,-82.0038
1.2991e+08,-82.0546
1.29977e+08,-82.4546
1.30043e+08,-81.7276
1.3011e+08,-81.5724
1.30177e+08,-81.4863
1.30243e+08,-80.5359
1.3031e+08,-81.9416
1.30377e+08,-82.1705
1.30443e+08,-81.2288
1.3051e+08,-81.8623
1.30577e+08,-80.1438
1.30644e+08,-81.9703
1.3071e+08,-81.7838
1.30777e+08,-81.3422
1.30844e+08,-81.6534
1.3091e+08,-82.398
1.30977e+08,-82.178
1.31044e+08,-82.767
1.3111e+08,-81.5238
1.31177e+08,-81.1624
1.31244e+08,-81.6844
1.3131e+08,-80.9149
1.31377e+08,-81.3158
1.31444e+08,-80.1787
1.31511e+08,-81.0675
1.31577e+08,-80.5558
1.31644e+08,-81.0453
1.31711e+08,-82.0569
1.31777e+08,-79.8445
1.31844e+08,-80.6308
1.31911e+08,-82.2476
1.31977e+08,-81.536
1.32044e+08,-82.0544
1.32111e+08,-82.8584
1.32177e+08,-82.177
1.32244e+08,-81.1294
1.32311e+08,-81.5297
1.32377e+08,-81.973
1.32444e+08,-82.5192
1.32511e+08,-81.1882
1.32578e+08,-80.7472
1.32644e+08,-81.5422
1.32711e+08,-82.8149
1.32778e+08,-81.5337
1.32844e+08,-81.699
1.32911e+08,-80.8994
1.32978e+08,-82.3169
1.33044e+08,-81.6596
1.33111e+08,-82.8944
1.33178e+08,-81.2227
1.33244e+08,-80.3132
1.33311e+08,-82.029
1.33378e+08,-81.3555
1.33444e+08,-82.1836
1.33511e+08,-81.5694
1.33578e+08,-81.6253
1.33645e+08,-80.3949
1.33711e+08,-81.0616
1.33778e+08,-80.8721
1.33845e+08,-81.9072
1.33911e+08,-82.3017
1.33978e+08,-81.4986
1.34045e+08,-82.1952
1.34111e+08,-80.6847
1.34178e+08,-82.586
1.34245e+08,-81.6619
1.34311e+08,-82.5977
1.34378e+08,-82.8327
1.34445e+08,-81.4802
1.34512e+08,-80.8183
1.34578e+08,-81.988
1.34645e+08,-81.8352
1.34712e+08,-82.1741
1.34778e+08,-82.4517
1.34845e+08,-80.2623
1.34912e+08,-82.2535
1.34978e+08,-80.5637
1.35045e+08,-80.0913
1.35112e+08,-81.4567
1.35178e+08,-81.9756
1.35245e+08,-81.4483
1.35312e+08,-80.3334
1.35378e+08,-81.8879
1.35445e+08,-81.0805
1.35512e+08,-81.4019
1.35579e+08,-81.3463
1.35645e+08,-82.3337
1.35712e+08,-82.1184
1.35779e+08,-81.7996
1.35845e+08,-80.2548
1.35912e+08,-81.9034
1.35979e+08,-81.2959
1.36045e+08,-81.8247
1.36112e+08,-81.2549
1.36179e+08,-82.1671
1.36245e+08,-81.6355
1.36312e+08,-81.6199
1.36379e+08,-82.0179
1.36445e+08,-82.0055
1.36512e+08,-80.6599
1.36579e+08,-82.5722
1.36646e+08,-82.1315
1.36712e+08,-81.8507
1.36779e+08,-81.6013
1.36846e+08,-81.7993
1.36912e+08,-82.3777
1.36979e+08,-81.8642
1.37046e+08,-82.2986
1.37112e+08,-81.1143
1.37179e+08,-82.0119
1.37246e+08,-81.185
1.37312e+08,-82.3417
1.37379e+08,-81.4843
1.37446e+08,-81.495
1.37513e+08,-81.5318
1.37579e+08,-81.9536
1.37646e+08,-81.2
1.37713e+08,-81.1205
1.37779e+08,-81.5636
1.37846e+08,-81.7533
1.37913e+08,-81.6458
1.37979e+08,-81.3503
1.38046e+08,-82.3486
1.38113e+08,-81.6633
1.38179e+08,-81.8864
1.38246e+08,-81.9133
1.38313e+08,-80.5521
1.38379e+08,-81.421
1.38446e+08,-81.2265
1.38513e+08,-81.487
1.3858e+08,-82.057
1.38646e+08,-81.8245
1.38713e+08,-80.393
1.3878e+08,-82.6576
1.38846e+08,-82.7085
1.38913e+08,-81.6954
1.3898e+08,-80.9938
1.39046e+08,-81.8604
1.39113e+08,-80.7769
1.3918e+08,-82.0924
1.39246e+08,-81.0804
1.39313e+08,-81.3587
1.3938e+08,-81.1834
1.39446e+08,-82.1992
1.39513e+08,-81.9509
1.3958e+08,-82.2592
1.39647e+08,-81.8754
1.39713e+08,-81.8866
1.3978e+08,-81.4068
1.39847e+08,-80.6518
1.39913e+08,-81.3102
1.3998e+08,-81.983
1.40047e+08,-81.3716
1.40113e+08,-80.3007
1.4018e+08,-81.7051
1.40247e+08,-80.8931
1.40313e+08,-82.1845
1.4038e+08,-81.0293
1.40447e+08,-81.3281
1.40514e+08,-81.6263
1.4058e+08,-81.4156
1.40647e+08,-82.178
1.40714e+08,-81.073
1.4078e+08,-80.83
1.40847e+08,-81.4322
1.40914e+08,-81.6766
1.4098e+08,-81.6038
1.41047e+08,-81.4047
1.41114e+08,-81.2101
1.4118e+08,-80.9386
1.41247e+08,-81.8829
1.41314e+08,-81.965
1.4138e+08,-79.9242
1.41447e+08,-80.7319
1.41514e+08,-80.9116
1.41581e+08,-82.7917
1.41647e+08,-81.0981
1.41714e+08,-81.9147
1.41781e+08,-80.8502
1.41847e+08,-80.539
1.41914e+08,-82.0679
1.41981e+08,-80.4978
1.42047e+08,-81.5429
1.42114e+08,-81.7907
1.42181e+08,-81.2639
1.42247e+08,-82.2106
1.42314e+08,-81.3767
1.42381e+08,-81.8159
1.42447e+08,-82.2868
1.42514e+08,-82.3233
1.42581e+08,-81.3747
1.42648e+08,-80.3012
1.42714e+08,-81.0651
1.42781e+08,-81.147
1.42848e+08,-80.9331
1.42914e+08,-80.8452
1.42981e+08,-81.1455
1.43048e+08,-81.5769
1.43114e+08,-82.0749
1.43181e+08,-81.7248
1.43248e+08,-81.5226
1.43314e+08,-81.4846
1.43381e+08,-81.7387
1.43448e+08,-79.7508
1.43515e+08,-81.2758
1.43581e+08,-81.1627
1.43648e+08,-81.6142
1.43715e+08,-80.8671
1.43781e+08,-82.0459
1.43848e+08,-80.1915
1.43915e+08,-80.4101
1.43981e+08,-81.8938
1.44048e+08,-81.4417
1.44115e+08,-81.4524
1.44181e+08,-81.752
1.44248e+08,-81.6363
1.44315e+08,-81.2588
1.44381e+08,-80.9427
1.44448e+08,-81.631
1.44515e+08,-80.1607
1.44582e+08,-81.2898
1.44648e+08,-82.1237
1.44715e+08,-81.4928
1.44782e+08,-81.373
1.44848e+08,-80.7614
1.44915e+08,-81.6466
1.44982e+08,-81.1449
1.45048e+08,-81.6992
1.45115e+08,-81.2055
1.45182e+08,-80.0629
1.45248e+08,-82.0509
1.45315e+08,-82.4352
1.45382e+08,-81.6393
1.45448e+08,-81.4836
1.45515e+08,-81.0512
1.45582e+08,-81.8779
1.45649e+08,-81.9642
1.45715e+08,-81.6904
1.45782e+08,-82.0469
1.45849e+08,-81.3391
1.45915e+08,-81.6238
1.45982e+08,-81.6922
1.46049e+08,-81.894
1.46115e+08,-81.7336
1.46182e+08,-81.5383
1.46249e+08,-80.6446
1.46315e+08,-81.4061
1.46382e+08,-81.6165
1.46449e+08,-82.0379
1.46516e+08,-80.0976
1.46582e+08,-82.1456
1.46649e+08,-81.0642
1.46716e+08,-81.2189
1.46782e+08,-82.197
1.46849e+08,-81.9989
1.46916e+08,-82.7603
1.46982e+08,-81.3936
1.47049e+08,-81.2823
1.47116e+08,-81.5502
1.47182e+08,-81.2483
1.47249e+08,-82.1325
1.47316e+08,-81.7672
1.47382e+08,-81.3129
1.47449e+08,-82.3525
1.47516e+08,-81.0291
1.47583e+08,-80.4591
1.47649e+08,-81.8545
1.47716e+08,-82.0444
1.47783e+08,-81.7521
1.47849e+08,-82.0997
1.47916e+08,-82.4408
1.47983e+08,-81.7274
1.48049e+08,-80.6926
1.48116e+08,-80.2113
1.48183e+08,-81.977
1.48249e+08,-80.7601
1.48316e+08,-81.4209
1.48383e+08,-81.8255
1.48449e+08,-81.2132
1.48516e+08,-81.1148
1.48583e+08,-82.0099
1.4865e+08,-81.3997
1.48716e+08,-81.8898
1.48783e+08,-82.2639
1.4885e+08,-81.5599
1.48916e+08,-81.305
1.48983e+08,-81.5703
1.4905e+08,-80.6133
1.49116e+08,-82.2779
1.49183e+08,-82.3395
1.4925e+08,-81.4475
1.49316e+08,-81.2177
1.49383e+08,-81.9919
1.4945e+08,-81.0217
1.49517e+08,-81.2785
1.49583e+08,-81.1285
1.4965e+08,-82.3235
1.49717e+08,-81.6719
1.49783e+08,-81.5567
1.4985e+08,-81.8773
1.49917e+08,-82.056
1.49983e+08,-81.6507
1.5005e+08,-81.6617
1.50117e+08,-79.2494
1.50183e+08,-81.6954
1.5025e+08,-81.7724
1.50317e+08,-81.8306
1.50383e+08,-81.2867
1.5045e+08,-81.2567
1.50517e+08,-80.7327
1.50584e+08,-81.7855
1.5065e+08,-81.4295
1.50717e+08,-81.8236
1.50784e+08,-81.6601
1.5085e+08,-81.9093
1.50917e+08,-82.4436
1.50984e+08,-81.9878
1.5105e+08,-80.9599
1.51117e+08,-80.7213
1.51184e+08,-81.4555
1.5125e+08,-82.0098
1.51317e+08,-81.2392
1.51384e+08,-81.729
1.5145e+08,-80.8756
1.51517e+08,-81.0133
1.51584e+08,-82.1081
1.51651e+08,-81.5048
1.51717e+08,-81.6685
1.51784e+08,-82.0621
1.51851e+08,-80.9008
1.51917e+08,-82.3314
1.51984e+08,-81.0492
1.52051e+08,-81.6737
1.52117e+08,-81.0088
1.52184e+08,-81.5882
1.52251e+08,-81.41
1.52317e+08,-81.0503
1.52384e+08,-81.4578
1.52451e+08,-81.7248
1.52518e+08,-81.9564
1.52584e+08,-81.6427
1.52651e+08,-81.1963
1.52718e+08,-81.7306
1.52784e+08,-82.2462
1.52851e+08,-81.7959
1.52918e+08,-81.6942
1.52984e+08,-80.4085
1.53051e+08,-81.9763
1.53118e+08,-81.6272
1.53184e+08,-81.7116
1.53251e+08,-80.6949
1.53318e+08,-80.7602
1.53384e+08,-81.353
1.53451e+08,-81.9813
1.53518e+08,-82.1628
1.53585e+08,-80.6649
1.53651e+08,-80.6678
1.53718e+08,-82.2516
1.53785e+08,-82.1894
1.53851e+08,-79.9946
1.53918e+08,-80.7453
1.53985e+08,-81.5214
1.54051e+08,-81.3331
1.54118e+08,-80.845
1.54185e+08,-81.5618
1.54251e+08,-80.2174
1.54318e+08,-82.0754
1.54385e+08,-81.0133
1.54451e+08,-81.386
1.54518e+08,-81.756
1.54585e+08,-80.9262
1.54652e+08,-81.6696
1.54718e+08,-81.8054
1.54785e+08,-80.0163
1.54852e+08,-81.4506
1.54918e+08,-81.9783
1.54985e+08,-81.2081
1.55052e+08,-81.8422
1.55118e+08,-81.732
1.55185e+08,-81.2876
1.55252e+08,-81.8565
1.55318e+08,-80.2882
1.55385e+08,-80.7169
1.55452e+08,-81.0844
1.55519e+08,-82.234
1.55585e+08,-81.1342
1.55652e+08,-82.2992
1.55719e+08,-81.3132
1.55785e+08,-81.4022
1.55852e+08,-81.2236
1.55919e+08,-81.8515
1.55985e+08,-80.803
1.56052e+08,-82.1724
1.56119e+08,-80.7705
1.56185e+08,-81.8258
1.56252e+08,-80.4309
1.56319e+08,-81.2348
1.56385e+08,-81.3379
1.56452e+08,-81.197
1.56519e+08,-81.2369
1.56586e+08,-82.1889
1.56652e+08,-81.5968
1.56719e+08,-81.5618
1.56786e+08,-79.5652
1.56852e+08,-81.3419
1.56919e+08,-81.6217
1.56986e+08,-82.2024
1.57052e+08,-82.5719
1.57119e+08,-81.1811
1.57186e+08,-81.403
1.57252e+08,-81.4326
1.57319e+08,-81.3795
1.57386e+08,-81.2157
1.57452e+08,-81.3897
1.57519e+08,-81.0149
1.57586e+08,-80.9535
1.57653e+08,-81.7677
1.57719e+08,-81.8578
1.57786e+08,-81.573
1.57853e+08,-80.5507
1.57919e+08,-81.8999
1.57986e+08,-81.0908
1.58053e+08,-81.5595
1.58119e+08,-81.5284
1.58186e+08,-81.1438
1.58253e+08,-80.6816
1.58319e+08,-81.8335
1.58386e+08,-81.379
1.58453e+08,-80.9079
1.5852e+08,-80.943
1.58586e+08,-81.3028
1.58653e+08,-81.5512
1.5872e+08,-81.543
1.58786e+08,-80.7401
1.58853e+08,-81.3942
1.5892e+08,-81.4578
1.58986e+08,-80.3468
1.59053e+08,-80.7905
1.5912e+08,-81.7528
1.59186e+08,-81.8904
1.59253e+08,-81.7792
1.5932e+08,-82.1807
1.59386e+08,-81.2228
1.59453e+08,-80.9181
1.5952e+08,-81.393
1.59587e+08,-80.9065
1.59653e+08,-81.995
1.5972e+08,-81.0995
1.59787e+08,-82.169
1.59853e+08,-80.6661
1.5992e+08,-81.5685
1.59987e+08,-81.4196
1.60053e+08,-80.2165
1.6012e+08,-81.6324
1.60187e+08,-79.963
1.60253e+08,-82.0837
1.6032e+08,-81.9018
1.60387e+08,-81.6034
1.60453e+08,-80.8292
1.6052e+08,-81.3517
1.60587e+08,-82.2249
1.60654e+08,-81.9193
1.6072e+08,-81.6279
1.60787e+08,-81.2678
1.60854e+08,-81.7241
1.6092e+08,-82.3643
1.60987e+08,-81.6298
1.61054e+08,-81.329
1.6112e+08,-80.8489
1.61187e+08,-82.1791
1.61254e+08,-81.9068
1.6132e+08,-81.1203
1.61387e+08,-81.6423
1.61454e+08,-80.1113
1.61521e+08,-82.0254
1.61587e+08,-81.9003
1.61654e+08,-80.113
1.61721e+08,-81.0266
1.61787e+08,-80.9577
1.61854e+08,-82.1782
1.61921e+08,-80.4794
1.61987e+08,-81.8813
1.62054e+08,-81.329
1.62121e+08,-82.1433
1.62187e+08,-80.4469
1.62254e+08,-82.1752
1.62321e+08,-81.8709
1.62387e+08,-81.5576
1.62454e+08,-81.0609
1.62521e+08,-82.0058
1.62588e+08,-80.7885
1.62654e+08,-81.9323
1.62721e+08,-80.9043
1.62788e+08,-80.9861
1.62854e+08,-80.9497
1.62921e+08,-80.96
1.62988e+08,-82.0225
1.63054e+08,-81.5911
1.63121e+08,-82.0013
1.63188e+08,-81.2795
1.63254e+08,-79.3095
1.63321e+08,-79.3298
1.63388e+08,-80.4955
1.63454e+08,-80.8172
1.63521e+08,-80.611
1.63588e+08,-81.3025
1.63655e+08,-81.3733
1.63721e+08,-82.7217
1.63788e+08,-80.7549
1.63855e+08,-81.2559
1.63921e+08,-81.6388
1.63988e+08,-81.2586
1.64055e+08,-81.5875
1.64121e+08,-81.2131
1.64188e+08,-80.8826
1.64255e+08,-82.3141
1.64321e+08,-81.6164
1.64388e+08,-81.2111
1.64455e+08,-82.0971
1.64522e+08,-82.2285
1.64588e+08,-81.9218
1.64655e+08,-81.4641
1.64722e+08,-80.602
1.64788e+08,-80.7931
1.64855e+08,-82.2761
1.64922e+08,-79.9499
1.64988e+08,-82.4268
1.65055e+08,-82.4136
1.65122e+08,-81.3585
1.65188e+08,-81.8813
1.65255e+08,-81.6133
1.65322e+08,-81.8325
1.65388e+08,-80.9882
1.65455e+08,-81.356
1.65522e+08,-81.7637
1.65589e+08,-81.9545
1.65655e+08,-80.6537
1.65722e+08,-82.3536
1.65789e+08,-80.1178
1.65855e+08,-82.2602
1.65922e+08,-80.8058
1.65989e+08,-81.4694
1.66055e+08,-81.3214
1.66122e+08,-81.999
1.66189e+08,-81.8061
1.66255e+08,-80.5115
1.66322e+08,-81.8768
1.66389e+08,-81.7532
1.66455e+08,-81.7056
1.66522e+08,-82.2052
1.66589e+08,-81.0954
1.66656e+08,-81.8943
1.66722e+08,-81.2232
1.66789e+08,-82.3455
1.66856e+08,-82.4855
1.66922e+08,-80.6096
1.66989e+08,-81.1217
1.67056e+08,-82.0857
1.67122e+08,-81.2313
1.67189e+08,-81.7315
1.67256e+08,-81.2489
1.67322e+08,-81.7936
1.67389e+08,-81.4398
1.67456e+08,-81.1549
1.67523e+08,-81.2842
1.67589e+08,-81.1392
1.67656e+08,-82.0485
1.67723e+08,-82.0889
1.67789e+08,-82.5344
1.67856e+08,-82.2786
1.67923e+08,-81.7024
1.67989e+08,-81.2286
1.68056e+08,-81.804
1.68123e+08,-80.9461
1.68189e+08,-81.2867
1.68256e+08,-81.4829
1.68323e+08,-80.8232
1.68389e+08,-82.4184
1.68456e+08,-81.4509
1.68523e+08,-82.2611
1.6859e+08,-81.6193
1.68656e+08,-81.6382
1.68723e+08,-82.0773
1.6879e+08,-81.5597
1.68856e+08,-80.5675
1.68923e+08,-80.6605
1.6899e+08,-82.0426
1.69056e+08,-82.0912
1.69123e+08,-82.1608
1.6919e+08,-80.9705
1.69256e+08,-81.6767
1.69323e+08,-82.0401
1.6939e+08,-82.5224
1.69456e+08,-81.3335
1.69523e+08,-81.3934
1.6959e+08,-81.7608
1.69657e+08,-81.8198
1.69723e+08,-82.2856
1.6979e+08,-81.3763
1.69857e+08,-81.6098
1.69923e+08,-81.8338
1.6999e+08,-82.6046
1.70057e+08,-81.6746
1.70123e+08,-79.9076
1.7019e+08,-81.4264
1.70257e+08,-80.7627
1.70323e+08,-82.1767
1.7039e+08,-82.1721
1.70457e+08,-82.4327
1.70524e+08,-82.2922
1.7059e+08,-81.8208
1.70657e+08,-82.4141
1.70724e+08,-82.5817
1.7079e+08,-80.8047
1.70857e+08,-81.1
1.70924e+08,-81.8342
1.7099e+08,-81.8098
1.71057e+08,-81.1242
1.71124e+08,-80.5161
1.7119e+08,-81.0499
1.71257e+08,-82.0706
1.71324e+08,-82.2484
1.7139e+08,-81.3756
1.71457e+08,-81.2547
1.71524e+08,-81.0328
1.71591e+08,-81.3703
1.71657e+08,-81.7969
1.71724e+08,-82.0712
1.71791e+08,-81.693
1.71857e+08,-79.8978
1.71924e+08,-81.9961
1.71991e+08,-82.185
1.72057e+08,-81.5777
1.72124e+08,-81.8492
1.72191e+08,-82.3856
1.72257e+08,-80.6879
1.72324e+08,-81.6615
1.72391e+08,-81.1992
1.72457e+08,-81.6527
1.72524e+08,-81.0217
1.72591e+08,-81.087
1.72658e+08,-81.7259
1.72724e+08,-80.9368
1.72791e+08,-82.25
1.72858e+08,-81.7839
1.72924e+08,-81.7913
1.72991e+08,-80.8023
1.73058e+08,-81.0761
1.73124e+08,-81.2273
1.73191e+08,-81.9663
1.73258e+08,-81.6899
1.73324e+08,-81.3687
1.73391e+08,-81.7679
1.73458e+08,-81.3981
1.73525e+08,-81.6447
1.73591e+08,-82.1315
1.73658e+08,-82.3025
1.73725e+08,-81.5885
1.73791e+08,-79.954
1.73858e+08,-80.9139
1.73925e+08,-81.6574
1.73991e+08,-82.7109
1.74058e+08,-81.9842
1.74125e+08,-80.5142
1.74191e+08,-81.8257
1.74258e+08,-81.3617
1.74325e+08,-80.5818
1.74391e+08,-81.6539
1.74458e+08,-81.9203
1.74525e+08,-81.7714
1.74592e+08,-82.518
1.74658e+08,-80.8361
1.74725e+08,-81.7938
1.74792e+08,-82.0605
1.74858e+08,-81.4219
1.74925e+08,-81.9289
1.74992e+08,-81.8397
1.75058e+08,-81.6685
1.75125e+08,-80.5101
1.75192e+08,-81.8062
1.75258e+08,-82.2736
1.75325e+08,-81.7415
1.75392e+08,-81.1285
1.75458e+08,-81.8082
1.75525e+08,-82.2463
1.75592e+08,-81.2237
1.75659e+08,-81.6995
1.75725e+08,-81.9351
1.75792e+08,-80.792
1.75859e+08,-81.5803
1.75925e+08,-82.3874
1.75992e+08,-81.4134
1.76059e+08,-82.2971
1.76125e+08,-82.0423
1.76192e+08,-81.6639
1.76259e+08,-81.9595
1.76325e+08,-82.0367
1.76392e+08,-80.8805
1.76459e+08,-81.0726
1.76526e+08,-81.9697
1.76592e+08,-81.7837
1.76659e+08,-81.9769
1.76726e+08,-81.012
1.76792e+08,-82.334
1.76859e+08,-82.3719
1.76926e+08,-82.7466
1.76992e+08,-81.5796
1.77059e+08,-80.0692
1.77126e+08,-81.7439
1.77192e+08,-81.916
1.77259e+08,-81.4307
1.77326e+08,-81.5576
1.77392e+08,-81.1469
1.77459e+08,-81.5217
1.77526e+08,-81.4864
1.77593e+08,-81.2913
1.77659e+08,-82.2767
1.77726e+08,-82.1753
1.77793e+08,-82.0875
1.77859e+08,-81.0805
1.77926e+08,-82.2241
1.77993e+08,-80.9334
1.78059e+08,-81.0496
1.78126e+08,-81.9414
1.78193e+08,-81.416
1.78259e+08,-82.4731
1.78326e+08,-81
1.78393e+08,-82.0913
1.78459e+08,-82.6464
1.78526e+08,-82.3636
1.78593e+08,-81.2461
1.7866e+08,-81.6101
1.78726e+08,-81.074
1.78793e+08,-81.3733
1.7886e+08,-82.7143
1.78926e+08,-82.0172
1.78993e+08,-81.9471
1.7906e+08,-81.421
1.79126e+08,-81.8208
1.79193e+08,-81.178
1.7926e+08,-81.7797
1.79326e+08,-81.9937
1.79393e+08,-80.6976
1.7946e+08,-81.8787
1.79527e+08,-81.1792
1.79593e+08,-81.8979
1.7966e+08,-81.0965
1.79727e+08,-80.9422
1.79793e+08,-82.6762
1.7986e+08,-80.372
1.79927e+08,-81.6793
1.79993e+08,-81.8143
1.8006e+08,-81.3182
1.80127e+08,-82.0246
1.80193e+08,-81.3934
1.8026e+08,-81.9785
1.80327e+08,-81.5546
1.80393e+08,-82.2014
1.8046e+08,-81.9321
1.80527e+08,-81.5687
1.80594e+08,-81.3865
1.8066e+08,-82.3135
1.80727e+08,-82.2115
1.80794e+08,-81.5199
1.8086e+08,-81.8238
1.80927e+08,-82.0351
1.80994e+08,-80.6539
1.8106e+08,-81.8304
1.81127e+08,-82.4343
1.81194e+08,-82.7593
1.8126e+08,-81.7927
1.81327e+08,-82.2618
1.81394e+08,-82.1855
1.8146e+08,-81.0461
1.81527e+08,-81.6515
1.81594e+08,-81.9154
1.81661e+08,-81.5251
1.81727e+08,-82.1036
1.81794e+08,-82.3093
1.81861e+08,-81.5861
1.81927e+08,-82.1354
1.81994e+08,-82.5758
1.82061e+08,-80.653
1.82127e+08,-82.2094
1.82194e+08,-82.2426
1.82261e+08,-81.4934
1.82327e+08,-82.0081
1.82394e+08,-81.1502
1.82461e+08,-80.8062
1.82528e+08,-81.7193
1.82594e+08,-81.7747
1.82661e+08,-82.7036
1.82728e+08,-81.9682
1.82794e+08,-81.443
1.82861e+08,-82.7962
1.82928e+08,-81.7282
1.82994e+08,-81.8603
1.83061e+08,-81.2691
1.83128e+08,-82.1348
1.83194e+08,-81.498
1.83261e+08,-81.834
1.83328e+08,-82.2595
1.83394e+08,-81.91
1.83461e+08,-82.0037
1.83528e+08,-80.6139
1.83595e+08,-81.3068
1.83661e+08,-81.953
1.83728e+08,-80.052
1.83795e+08,-81.1435
1.83861e+08,-81.9351
1.83928e+08,-81.7887
1.83995e+08,-81.6884
1.84061e+08,-82.057
1.84128e+08,-82.1524
1.84195e+08,-81.4673
1.84261e+08,-82.0597
1.84328e+08,-81.1768
1.84395e+08,-80.9837
1.84461e+08,-82.4569
1.84528e+08,-80.5643
1.84595e+08,-80.5429
1.84662e+08,-81.6043
1.84728e+08,-81.3632
1.84795e+08,-81.294
1.84862e+08,-82.3847
1.84928e+08,-81.4695
1.84995e+08,-81.6729
1.85062e+08,-81.4763
1.85128e+08,-81.2009
1.85195e+08,-81.8559
1.85262e+08,-81.3668
1.85328e+08,-81.3128
1.85395e+08,-81.587
1.85462e+08,-81.3692
1.85529e+08,-82.642
1.85595e+08,-81.7322
1.85662e+08,-81.9093
1.85729e+08,-80.9664
1.85795e+08,-82.6312
1.85862e+08,-82.1982
1.85929e+08,-81.5203
1.85995e+08,-82.0674
1.86062e+08,-81.5467
1.86129e+08,-81.5462
1.86195e+08,-81.8565
1.86262e+08,-81.2527
1.86329e+08,-81.8515
1.86395e+08,-81.8065
1.86462e+08,-82.1811
1.86529e+08,-82.5155
1.86596e+08,-82.1464
1.86662e+08,-81.1182
1.86729e+08,-81.4715
1.86796e+08,-81.6238
1.86862e+08,-81.6748
1.86929e+08,-81.3199
1.86996e+08,-82.8604
1.87062e+08,-81.9029
1.87129e+08,-80.3242
1.87196e+08,-81.468
1.87262e+08,-79.973
1.87329e+08,-82.549
1.87396e+08,-80.5149
1.87462e+08,-81.544
1.87529e+08,-81.642
1.87596e+08,-81.2427
1.87663e+08,-82.3036
1.87729e+08,-82.7913
1.87796e+08,-82.0747
1.87863e+08,-82.0617
1.87929e+08,-80.6974
1.87996e+08,-81.3732
1.88063e+08,-81.2467
1.88129e+08,-81.6534
1.88196e+08,-81.8415
1.88263e+08,-81.6009
1.88329e+08,-81.0204
1.88396e+08,-82.0079
1.88463e+08,-82.124
1.8853e+08,-81.6742
1.88596e+08,-80.8974
1.88663e+08,-82.7212
1.8873e+08,-82.4684
1.88796e+08,-82.3337
1.88863e+08,-82.1252
1.8893e+08,-80.9975
1.88996e+08,-81.631
1.89063e+08,-81.8066
1.8913e+08,-82.1653
1.89196e+08,-81.6932
1.89263e+08,-80.9143
1.8933e+08,-82.3728
1.89396e+08,-81.4476
1.89463e+08,-81.3737
1.8953e+08,-80.9819
1.89597e+08,-81.022
1.89663e+08,-81.3645
1.8973e+08,-82.9546
1.89797e+08,-82.2067
1.89863e+08,-81.5732
1.8993e+08,-82.6938
1.89997e+08,-81.0523
1.90063e+08,-82.7964
1.9013e+08,-81.1483
1.90197e+08,-81.6697
1.90263e+08,-82.2075
1.9033e+08,-81.5421
1.90397e+08,-81.3321
1.90463e+08,-81.7277
1.9053e+08,-81.3082
1.90597e+08,-81.8357
1.90664e+08,-80.4974
1.9073e+08,-80.9987
1.90797e+08,-81.6215
1.90864e+08,-82.7723
1.9093e+08,-82.2748
1.90997e+08,-80.5298
1.91064e+08,-82.3987
1.9113e+08,-81.2465
1.91197e+08,-82.3157
1.91264e+08,-81.2303
1.9133e+08,-80.679
1.91397e+08,-81.4132
1.91464e+08,-82.3438
1.91531e+08,-82.0259
1.91597e+08,-82.5655
1.91664e+08,-81.8806
1.91731e+08,-81.7826
1.91797e+08,-81.8796
1.91864e+08,-81.2031
1.91931e+08,-81.609
1.91997e+08,-80.9929
1.92064e+08,-82.2621
1.92131e+08,-80.9661
1.92197e+08,-81.8155
1.92264e+08,-80.5483
1.92331e+08,-82.4109
1.92397e+08,-81.5188
1.92464e+08,-81.4401
1.92531e+08,-82.4225
1.92598e+08,-81.8573
1.92664e+08,-82.3564
1.92731e+08,-82.1763
1.92798e+08,-82.2865
1.92864e+08,-82.7347
1.92931e+08,-81.8385
1.92998e+08,-82.6932
1.93064e+08,-82.1569
1.93131e+08,-81.6676
1.93198e+08,-82.0342
1.93264e+08,-81.4497
1.93331e+08,-80.632
1.93398e+08,-81.8065
1.93464e+08,-81.8712
1.93531e+08,-82.2724
1.93598e+08,-82.502
1.93665e+08,-82.5588
1.93731e+08,-80.1665
1.93798e+08,-81.8361
1.93865e+08,-82.5044
1.93931e+08,-81.9458
1.93998e+08,-82.2689
1.94065e+08,-81.6407
1.94131e+08,-81.4471
1.94198e+08,-80.7829
1.94265e+08,-81.6631
1.94331e+08,-80.2125
1.94398e+08,-81.0416
1.94465e+08,-82.1379
1.94532e+08,-82.4511
1.94598e+08,-82.0195
1.94665e+08,-81.6044
1.94732e+08,-82.1909
1.94798e+08,-81.6192
1.94865e+08,-82.0509
1.94932e+08,-81.1423
1.94998e+08,-82.0834
1.95065e+08,-81.8961
1.95132e+08,-81.1108
1.95198e+08,-80.7214
1.95265e+08,-80.9205
1.95332e+08,-81.6312
1.95398e+08,-81.6227
1.95465e+08,-82.211
1.95532e+08,-82.5227
1.95599e+08,-82.3257
1.95665e+08,-81.1557
1.95732e+08,-82.9188
1.95799e+08,-81.1585
1.95865e+08,-82.341
1.95932e+08,-80.6694
1.95999e+08,-81.9055
1.96065e+08,-81.6816
1.96132e+08,-81.8226
1.96199e+08,-81.3001
1.96265e+08,-83.0875
1.96332e+08,-81.5325
1.96399e+08,-81.4966
1.96465e+08,-81.2255
1.96532e+08,-81.7952
1.96599e+08,-82.0756
1.96666e+08,-81.9129
1.96732e+08,-81.3577
1.96799e+08,-82.218
1.96866e+08,-81.6396
1.96932e+08,-81.5596
1.96999e+08,-80.8855
1.97066e+08,-81.6701
1.97132e+08,-81.2015
1.97199e+08,-81.9212
1.97266e+08,-81.1098
1.97332e+08,-81.5685
1.97399e+08,-81.809
1.97466e+08,-81.2906
1.97533e+08,-82.5254
1.97599e+08,-82.3757
1.97666e+08,-81.0506
1.97733e+08,-82.4665
1.97799e+08,-80.4126
1.97866e+08,-82.0787
1.97933e+08,-81.8664
1.97999e+08,-82.5574
1.98066e+08,-81.6746
1.98133e+08,-82.1273
1.98199e+08,-81.4831
1.98266e+08,-82.7895
1.98333e+08,-81.7695
1.98399e+08,-81.9536
1.98466e+08,-82.0448
1.98533e+08,-80.2557
1.986e+08,-80.9212
1.98666e+08,-81.5032
1.98733e+08,-81.2123
1.988e+08,-81.9216
1.98866e+08,-81.1809
1.98933e+08,-82.3267
1.99e+08,-82.2186
1.99066e+08,-79.9666
1.99133e+08,-81.9897
1.992e+08,-82.9763
1.99266e+08,-82.2982
1.99333e+08,-82.2977
1.994e+08,-81.1807
1.99466e+08,-81.9622
1.99533e+08,-82.3395
1.996e+08,-82.4613
1.99667e+08,-82.1879
1.99733e+08,-81.4441
1.998e+08,-82.0264
1.99867e+08,-81.6611
1.99933e+08,-81.8063
2e+08,-82.0627
