FileType,0
Number of Points,3000
Sweep Time,3e+08
Start Frequency,0
Stop Frequency,1.3e+08
Average Count,10
Average Type,1
RBW,10000
RBW Filter,0
RBW Filter BW,0
VBW,10000
Sweep Type,0
X Axis Scale,1
PreAmp State,0
Trigger Source,0
Trigger Level,-25
Trigger Edge,0
Trigger Delay Switch,0
Trigger Delay,1
Attenuation,20
Ref Level Offset,0
External Gain,0
Trace Type,0
Detector,0
Trace Math,5
Trace Math Oper1,4
Trace Math Oper2,5
Trace Math Offset,0
Trace Name,0
Full Span,1.3e+08
Y Axis Unit,0
DATA,
0,-14.7013
43347.8,-62.7632
86695.6,-35.8978
130043,-34.6323
173391,-45.9576
216739,-45.1334
260087,-45.4759
303434,-46.8415
346782,-50.4571
390130,-51.0313
433478,-54.7115
476826,-59.1561
520173,-63.3202
563521,-66.4518
606869,-68.1119
650217,-68.5676
693565,-70.4172
736912,-70.6281
780260,-69.4741
823608,-70.0318
866956,-71.6064
910303,-71.3189
953651,-71.1156
996999,-72.5894
1.04035e+06,-72.9529
1.08369e+06,-72.7986
1.12704e+06,-70.2083
1.17039e+06,-71.5504
1.21374e+06,-69.164
1.25709e+06,-68.8289
1.30043e+06,-68.5623
1.34378e+06,-67.9126
1.38713e+06,-66.6379
1.43048e+06,-64.6483
1.47382e+06,-60.7675
1.51717e+06,-61.9159
1.56052e+06,-59.8268
1.60387e+06,-64.9991
1.64722e+06,-65.9983
1.69056e+06,-64.621
1.73391e+06,-69.6312
1.77726e+06,-69.5884
1.82061e+06,-71.359
1.86395e+06,-72.4888
1.9073e+06,-70.3348
1.95065e+06,-71.5138
1.994e+06,-71.0021
2.03735e+06,-71.5664
2.08069e+06,-71.0024
2.12404e+06,-72.0007
2.16739e+06,-72.0285
2.21074e+06,-69.3774
2.25408e+06,-70.6377
2.29743e+06,-71.027
2.34078e+06,-69.4808
2.38413e+06,-69.9956
2.42748e+06,-64.846
2.47082e+06,-63.5018
2.51417e+06,-67.4801
2.55752e+06,-69.6913
2.60087e+06,-68.6091
2.64421e+06,-69.4181
2.68756e+06,-69.9291
2.73091e+06,-68.3308
2.77426e+06,-70.9274
2.81761e+06,-70.8539
2.86095e+06,-70.5659
2.9043e+06,-69.153
2.94765e+06,-69.48
2.991e+06,-70.9518
3.03434e+06,-69.4176
3.07769e+06,-69.0135
3.12104e+06,-68.9544
3.16439e+06,-68.8182
3.20774e+06,-68.6651
3.25108e+06,-69.6267
3.29443e+06,-69.7762
3.33778e+06,-68.2574
3.38113e+06,-68.6839
3.42447e+06,-68.4587
3.46782e+06,-67.9027
3.51117e+06,-68.4585
3.55452e+06,-68.4956
3.59787e+06,-68.6457
3.64121e+06,-68.2209
3.68456e+06,-68.5702
3.72791e+06,-67.6794
3.77126e+06,-67.0587
3.8146e+06,-67.7302
3.85795e+06,-68.6833
3.9013e+06,-67.6454
3.94465e+06,-66.8559
3.988e+06,-67.4948
4.03134e+06,-67.747
4.07469e+06,-66.8403
4.11804e+06,-67.4946
4.16139e+06,-67.9192
4.20473e+06,-66.7181
4.24808e+06,-66.2603
4.29143e+06,-67.8497
4.33478e+06,-67.798
4.37813e+06,-67.1371
4.42147e+06,-67.2169
4.46482e+06,-67.2813
4.50817e+06,-65.0786
4.55152e+06,-66.8706
4.59486e+06,-67.6445
4.63821e+06,-66.3031
4.68156e+06,-67.5772
4.72491e+06,-66.1455
4.76826e+06,-65.6356
4.8116e+06,-67.4607
4.85495e+06,-66.8394
4.8983e+06,-66.8701
4.94165e+06,-66.552
4.98499e+06,-67.7117
5.02834e+06,-66.5667
5.07169e+06,-66.8853
5.11504e+06,-67.4603
5.15839e+06,-66.1449
5.20173e+06,-67.1679
5.24508e+06,-66.9316
5.28843e+06,-65.0651
5.33178e+06,-66.8388
5.37513e+06,-66.9938
5.41847e+06,-66.9781
5.46182e+06,-66.1588
5.50517e+06,-66.762
5.54852e+06,-66.2014
5.59186e+06,-67.1515
5.63521e+06,-67.1994
5.67856e+06,-66.8076
5.72191e+06,-65.5147
5.76526e+06,-67.1832
5.8086e+06,-66.244
5.85195e+06,-66.8844
5.8953e+06,-66.462
5.93865e+06,-66.5955
5.98199e+06,-66.1723
6.02534e+06,-66.9774
6.06869e+06,-66.5061
6.11204e+06,-67.4921
6.15539e+06,-66.3592
6.19873e+06,-65.7144
6.24208e+06,-66.4322
6.28543e+06,-65.8231
6.32878e+06,-66.1435
6.37212e+06,-64.4821
6.41547e+06,-65.2923
6.45882e+06,-66.8836
6.50217e+06,-65.2153
6.54552e+06,-65.7411
6.58886e+06,-65.8638
6.63221e+06,-65.8775
6.67556e+06,-65.3955
6.71891e+06,-66.3585
6.76225e+06,-66.791
6.8056e+06,-66.3439
6.84895e+06,-65.8635
6.8923e+06,-65.5397
6.93565e+06,-66.6392
6.97899e+06,-65.2787
7.02234e+06,-65.2787
7.06569e+06,-64.7672
7.10904e+06,-64.6708
7.15238e+06,-65.7674
7.19573e+06,-66.0576
7.23908e+06,-65.5393
7.28243e+06,-65.5924
7.32578e+06,-66.2565
7.36912e+06,-65.8354
7.41247e+06,-65.6055
7.45582e+06,-65.8079
7.49917e+06,-65.4075
7.54251e+06,-65.6054
7.58586e+06,-64.7544
7.62921e+06,-65.2908
7.67256e+06,-64.6581
7.71591e+06,-65.9591
7.75925e+06,-66.256
7.8026e+06,-65.0369
7.84595e+06,-64.5864
7.8893e+06,-64.742
7.93264e+06,-63.9349
7.97599e+06,-64.7903
8.01934e+06,-64.5625
8.06269e+06,-65.0491
8.10604e+06,-64.7538
8.14938e+06,-64.5151
8.19273e+06,-64.6934
8.23608e+06,-64.6216
8.27943e+06,-64.3056
8.32277e+06,-64.5621
8.36612e+06,-65.4326
8.40947e+06,-63.3696
8.45282e+06,-64.2939
8.49617e+06,-65.0736
8.53951e+06,-64.5736
8.58286e+06,-63.9121
8.62621e+06,-65.3153
8.66956e+06,-65.367
8.7129e+06,-64.9117
8.75625e+06,-63.5358
8.7996e+06,-64.8625
8.84295e+06,-64.2705
8.8863e+06,-64.0445
8.92964e+06,-63.2461
8.97299e+06,-63.9447
9.01634e+06,-64.514
9.05969e+06,-64.7284
9.10303e+06,-62.8483
9.14638e+06,-64.4786
9.18973e+06,-64.1001
9.23308e+06,-64.5137
9.27643e+06,-64.4784
9.31977e+06,-63.9995
9.36312e+06,-63.7696
9.40647e+06,-64.3387
9.44982e+06,-63.7049
9.49316e+06,-62.78
9.53651e+06,-64.4664
9.57986e+06,-64.8493
9.62321e+06,-65.11
9.66656e+06,-63.1541
9.7099e+06,-63.6298
9.75325e+06,-64.6435
9.7966e+06,-63.0738
9.83995e+06,-64.2464
9.88329e+06,-63.9877
9.92664e+06,-63.4507
9.96999e+06,-62.7794
1.00133e+07,-63.943
1.00567e+07,-63.0928
1.01e+07,-64.2337
1.01434e+07,-63.7674
1.01867e+07,-63.2736
1.02301e+07,-62.4649
1.02734e+07,-63.8423
1.03168e+07,-63.5
1.03601e+07,-64.1749
1.04035e+07,-63.7545
1.04468e+07,-63.765
1.04902e+07,-64.4617
1.05335e+07,-62.4811
1.05769e+07,-64.23
1.06202e+07,-63.699
1.06636e+07,-63.1482
1.07069e+07,-63.4032
1.07503e+07,-63.9482
1.07936e+07,-64.0366
1.08369e+07,-62.7725
1.08803e+07,-63.5587
1.09236e+07,-62.9275
1.0967e+07,-62.4498
1.10103e+07,-63.8692
1.10537e+07,-63.7602
1.1097e+07,-63.5359
1.11404e+07,-63.4622
1.11837e+07,-64.3746
1.12271e+07,-63.6515
1.12704e+07,-63.3574
1.13138e+07,-63.9548
1.13571e+07,-64.167
1.14005e+07,-63.5651
1.14438e+07,-63.5648
1.14872e+07,-63.8327
1.15305e+07,-61.8442
1.15739e+07,-63.4692
1.16172e+07,-63.2827
1.16606e+07,-63.6587
1.17039e+07,-63.3128
1.17472e+07,-64.2779
1.17906e+07,-63.3532
1.18339e+07,-63.019
1.18773e+07,-63.9503
1.19206e+07,-63.1382
1.1964e+07,-62.5733
1.20073e+07,-66.3462
1.20507e+07,-64.8094
1.2094e+07,-64.7756
1.21374e+07,-65.1465
1.21807e+07,-65.9397
1.22241e+07,-65.146
1.22674e+07,-64.1441
1.23108e+07,-65.5271
1.23541e+07,-64.7965
1.23975e+07,-65.0695
1.24408e+07,-65.1099
1.24842e+07,-65.3273
1.25275e+07,-64.7009
1.25709e+07,-65.2321
1.26142e+07,-65.6236
1.26576e+07,-63.9061
1.27009e+07,-65.2137
1.27442e+07,-64.6334
1.27876e+07,-64.8957
1.28309e+07,-65.0211
1.28743e+07,-64.1097
1.29176e+07,-64.9862
1.2961e+07,-64.4043
1.30043e+07,-64.1246
1.30477e+07,-64.9797
1.3091e+07,-64.7702
1.31344e+07,-64.9108
1.31777e+07,-64.2754
1.32211e+07,-64.4082
1.32644e+07,-64.1336
1.33078e+07,-64.1646
1.33511e+07,-64.1695
1.33945e+07,-64.0296
1.34378e+07,-63.5792
1.34812e+07,-63.6622
1.35245e+07,-52.7421
1.35679e+07,-53.6889
1.36112e+07,-61.7125
1.36546e+07,-61.5874
1.36979e+07,-61.3463
1.37412e+07,-58.8785
1.37846e+07,-59.9233
1.38279e+07,-59.1518
1.38713e+07,-59.6767
1.39146e+07,-58.5791
1.3958e+07,-59.8554
1.40013e+07,-57.4707
1.40447e+07,-57.6756
1.4088e+07,-58.7526
1.41314e+07,-58.8367
1.41747e+07,-58.9245
1.42181e+07,-56.0418
1.42614e+07,-59.336
1.43048e+07,-60.2267
1.43481e+07,-61.7282
1.43915e+07,-61.2975
1.44348e+07,-61.716
1.44782e+07,-62.5408
1.45215e+07,-62.9436
1.45649e+07,-63.2761
1.46082e+07,-63.2008
1.46516e+07,-62.5529
1.46949e+07,-63.1863
1.47382e+07,-62.7897
1.47816e+07,-63.5379
1.48249e+07,-62.9511
1.48683e+07,-63.8438
1.49116e+07,-63.63
1.4955e+07,-63.8786
1.49983e+07,-63.0185
1.50417e+07,-64.377
1.5085e+07,-63.3871
1.51284e+07,-64.0049
1.51717e+07,-65.2358
1.52151e+07,-63.8924
1.52584e+07,-63.8669
1.53018e+07,-64.7695
1.53451e+07,-64.4129
1.53885e+07,-63.3474
1.54318e+07,-64.5532
1.54752e+07,-63.4569
1.55185e+07,-64.6185
1.55619e+07,-64.6238
1.56052e+07,-65.0177
1.56485e+07,-64.1781
1.56919e+07,-64.4595
1.57352e+07,-65.2033
1.57786e+07,-64.4753
1.58219e+07,-63.7536
1.58653e+07,-64.6167
1.59086e+07,-65.068
1.5952e+07,-64.794
1.59953e+07,-65.3144
1.60387e+07,-62.7294
1.6082e+07,-64.4953
1.61254e+07,-63.3719
1.61687e+07,-64.1753
1.62121e+07,-65.1245
1.62554e+07,-65.2833
1.62988e+07,-63.7063
1.63421e+07,-64.2637
1.63855e+07,-64.1898
1.64288e+07,-64.2738
1.64722e+07,-64.0542
1.65155e+07,-64.085
1.65589e+07,-64.6903
1.66022e+07,-64.7681
1.66455e+07,-63.9202
1.66889e+07,-64.3202
1.67322e+07,-63.4742
1.67756e+07,-63.2454
1.68189e+07,-62.9904
1.68623e+07,-64.298
1.69056e+07,-63.6882
1.6949e+07,-63.7875
1.69923e+07,-64.388
1.70357e+07,-64.155
1.7079e+07,-62.4837
1.71224e+07,-64.5223
1.71657e+07,-62.2537
1.72091e+07,-64.0245
1.72524e+07,-63.9322
1.72958e+07,-65.1304
1.73391e+07,-64.2109
1.73825e+07,-64.7304
1.74258e+07,-63.6312
1.74692e+07,-63.9412
1.75125e+07,-64.2786
1.75559e+07,-64.4766
1.75992e+07,-62.4766
1.76425e+07,-63.0731
1.76859e+07,-64.7511
1.77292e+07,-62.8407
1.77726e+07,-63.5803
1.78159e+07,-64.6282
1.78593e+07,-63.575
1.79026e+07,-62.4879
1.7946e+07,-64.442
1.79893e+07,-63.3762
1.80327e+07,-63.7517
1.8076e+07,-63.1356
1.81194e+07,-64.3765
1.81627e+07,-63.771
1.82061e+07,-63.4711
1.82494e+07,-64.7313
1.82928e+07,-63.6118
1.83361e+07,-64.1793
1.83795e+07,-64.5592
1.84228e+07,-64.991
1.84662e+07,-64.5478
1.85095e+07,-64.353
1.85529e+07,-64.5912
1.85962e+07,-64.2887
1.86395e+07,-64.6403
1.86829e+07,-64.7962
1.87262e+07,-64.3894
1.87696e+07,-63.9088
1.88129e+07,-64.9259
1.88563e+07,-63.5306
1.88996e+07,-63.3427
1.8943e+07,-63.9486
1.89863e+07,-63.7765
1.90297e+07,-64.474
1.9073e+07,-62.2225
1.91164e+07,-64.0865
1.91597e+07,-63.7656
1.92031e+07,-62.5893
1.92464e+07,-64.4566
1.92898e+07,-63.8654
1.93331e+07,-63.2175
1.93765e+07,-62.5275
1.94198e+07,-63.6846
1.94632e+07,-64.2364
1.95065e+07,-65.3493
1.95498e+07,-64.6742
1.95932e+07,-63.1274
1.96365e+07,-64.1201
1.96799e+07,-64.0991
1.97232e+07,-64.1666
1.97666e+07,-64.2084
1.98099e+07,-63.6875
1.98533e+07,-63.7969
1.98966e+07,-64.7728
1.994e+07,-63.2613
1.99833e+07,-64.0456
2.00267e+07,-64.3557
2.007e+07,-63.9121
2.01134e+07,-63.2089
2.01567e+07,-63.7008
2.02001e+07,-64.1907
2.02434e+07,-62.5668
2.02868e+07,-63.7103
2.03301e+07,-64.36
2.03735e+07,-65.0159
2.04168e+07,-63.5376
2.04602e+07,-63.8651
2.05035e+07,-64.1687
2.05468e+07,-64.681
2.05902e+07,-63.6745
2.06335e+07,-65.0034
2.06769e+07,-64.7756
2.07202e+07,-63.8743
2.07636e+07,-63.6295
2.08069e+07,-64.1258
2.08503e+07,-63.3673
2.08936e+07,-64.4009
2.0937e+07,-64.713
2.09803e+07,-64.5198
2.10237e+07,-63.2858
2.1067e+07,-62.9014
2.11104e+07,-63.6578
2.11537e+07,-64.0364
2.11971e+07,-64.1977
2.12404e+07,-64.5956
2.12838e+07,-64.2554
2.13271e+07,-63.9536
2.13705e+07,-64.3189
2.14138e+07,-63.2466
2.14572e+07,-63.627
2.15005e+07,-64.3826
2.15438e+07,-63.4464
2.15872e+07,-63.9782
2.16305e+07,-63.9525
2.16739e+07,-63.5186
2.17172e+07,-63.4796
2.17606e+07,-63.4843
2.18039e+07,-62.57
2.18473e+07,-63.8754
2.18906e+07,-64.1533
2.1934e+07,-63.542
2.19773e+07,-63.2352
2.20207e+07,-64.7259
2.2064e+07,-62.4478
2.21074e+07,-62.6565
2.21507e+07,-63.8087
2.21941e+07,-63.3053
2.22374e+07,-64.0016
2.22808e+07,-62.1844
2.23241e+07,-63.0201
2.23675e+07,-63.487
2.24108e+07,-63.1961
2.24542e+07,-63.2382
2.24975e+07,-62.3479
2.25408e+07,-63.2946
2.25842e+07,-63.0837
2.26275e+07,-62.1999
2.26709e+07,-63.5932
2.27142e+07,-63.2893
2.27576e+07,-63.0646
2.28009e+07,-62.6145
2.28443e+07,-61.9885
2.28876e+07,-63.1058
2.2931e+07,-64.4044
2.29743e+07,-63.8007
2.30177e+07,-63.6313
2.3061e+07,-63.3118
2.31044e+07,-63.3927
2.31477e+07,-62.7369
2.31911e+07,-62.8307
2.32344e+07,-63.6404
2.32778e+07,-62.6568
2.33211e+07,-63.0349
2.33645e+07,-63.5028
2.34078e+07,-63.6447
2.34512e+07,-60.3209
2.34945e+07,-63.2581
2.35378e+07,-63.1874
2.35812e+07,-62.8879
2.36245e+07,-63.286
2.36679e+07,-62.167
2.37112e+07,-63.0612
2.37546e+07,-62.0714
2.37979e+07,-62.3603
2.38413e+07,-62.3219
2.38846e+07,-61.3365
2.3928e+07,-62.1577
2.39713e+07,-60.7188
2.40147e+07,-60.8322
2.4058e+07,-61.9761
2.41014e+07,-62.029
2.41447e+07,-62.0618
2.41881e+07,-60.5469
2.42314e+07,-62.1525
2.42748e+07,-60.885
2.43181e+07,-62.1981
2.43615e+07,-61.9791
2.44048e+07,-62.5216
2.44481e+07,-61.1287
2.44915e+07,-61.147
2.45348e+07,-62.214
2.45782e+07,-61.7728
2.46215e+07,-61.65
2.46649e+07,-61.4251
2.47082e+07,-61.3109
2.47516e+07,-61.9167
2.47949e+07,-61.856
2.48383e+07,-61.9978
2.48816e+07,-61.8276
2.4925e+07,-61.0533
2.49683e+07,-62.0547
2.50117e+07,-60.8358
2.5055e+07,-61.2008
2.50984e+07,-60.0758
2.51417e+07,-61.6875
2.51851e+07,-61.7706
2.52284e+07,-60.7744
2.52718e+07,-61.3315
2.53151e+07,-61.1961
2.53585e+07,-61.0849
2.54018e+07,-61.7818
2.54451e+07,-61.3879
2.54885e+07,-61.9425
2.55318e+07,-61.3838
2.55752e+07,-61.4756
2.56185e+07,-61.414
2.56619e+07,-61.5876
2.57052e+07,-61.8568
2.57486e+07,-61.7885
2.57919e+07,-61.7367
2.58353e+07,-61.9697
2.58786e+07,-61.8643
2.5922e+07,-62.848
2.59653e+07,-61.6925
2.60087e+07,-61.3214
2.6052e+07,-62.1377
2.60954e+07,-61.4315
2.61387e+07,-62.1874
2.61821e+07,-62.3903
2.62254e+07,-61.5973
2.62688e+07,-60.1408
2.63121e+07,-61.6952
2.63555e+07,-62.6944
2.63988e+07,-61.6045
2.64421e+07,-61.0994
2.64855e+07,-60.888
2.65288e+07,-61.8138
2.65722e+07,-62.2657
2.66155e+07,-63.0416
2.66589e+07,-62.7022
2.67022e+07,-62.5613
2.67456e+07,-62.8993
2.67889e+07,-62.5872
2.68323e+07,-63.3603
2.68756e+07,-62.8807
2.6919e+07,-62.3407
2.69623e+07,-62.8578
2.70057e+07,-62.912
2.7049e+07,-64.0672
2.70924e+07,-63.8062
2.71357e+07,-63.2925
2.71791e+07,-63.1277
2.72224e+07,-63.0718
2.72658e+07,-63.4405
2.73091e+07,-63.7202
2.73525e+07,-62.9655
2.73958e+07,-61.9154
2.74391e+07,-63.1595
2.74825e+07,-62.4156
2.75258e+07,-63.4541
2.75692e+07,-62.7346
2.76125e+07,-62.4281
2.76559e+07,-63.0287
2.76992e+07,-63.8799
2.77426e+07,-62.7206
2.77859e+07,-62.8459
2.78293e+07,-64.2216
2.78726e+07,-63.3662
2.7916e+07,-63.1578
2.79593e+07,-63.1156
2.80027e+07,-62.9404
2.8046e+07,-64.1576
2.80894e+07,-62.7639
2.81327e+07,-62.362
2.81761e+07,-63.2556
2.82194e+07,-64.4072
2.82628e+07,-63.5195
2.83061e+07,-63.2836
2.83494e+07,-62.5511
2.83928e+07,-62.7272
2.84361e+07,-61.8351
2.84795e+07,-63.1933
2.85228e+07,-63.4216
2.85662e+07,-63.0117
2.86095e+07,-63.5918
2.86529e+07,-63.5474
2.86962e+07,-62.9745
2.87396e+07,-63.4305
2.87829e+07,-63.7399
2.88263e+07,-63.5175
2.88696e+07,-62.5448
2.8913e+07,-63.0936
2.89563e+07,-63.5905
2.89997e+07,-62.2739
2.9043e+07,-63.4005
2.90864e+07,-62.0731
2.91297e+07,-63.8191
2.91731e+07,-64.1641
2.92164e+07,-62.4914
2.92598e+07,-62.7822
2.93031e+07,-62.6002
2.93464e+07,-62.872
2.93898e+07,-63.2183
2.94331e+07,-63.0178
2.94765e+07,-62.4387
2.95198e+07,-62.4299
2.95632e+07,-62.7498
2.96065e+07,-62.4124
2.96499e+07,-62.6253
2.96932e+07,-62.2799
2.97366e+07,-62.0419
2.97799e+07,-62.875
2.98233e+07,-62.5677
2.98666e+07,-63.548
2.991e+07,-62.7307
2.99533e+07,-62.5759
2.99967e+07,-62.1737
3.004e+07,-62.3084
3.00834e+07,-61.4365
3.01267e+07,-61.4286
3.01701e+07,-61.9177
3.02134e+07,-62.3588
3.02568e+07,-62.9827
3.03001e+07,-61.9498
3.03434e+07,-63.1118
3.03868e+07,-62.8728
3.04301e+07,-62.4181
3.04735e+07,-62.959
3.05168e+07,-62.2982
3.05602e+07,-62.0637
3.06035e+07,-62.0306
3.06469e+07,-62.4907
3.06902e+07,-61.6994
3.07336e+07,-62.0301
3.07769e+07,-61.1136
3.08203e+07,-63.1055
3.08636e+07,-62.464
3.0907e+07,-61.9926
3.09503e+07,-61.8906
3.09937e+07,-62.2922
3.1037e+07,-61.2507
3.10804e+07,-61.6743
3.11237e+07,-62.4328
3.11671e+07,-62.861
3.12104e+07,-60.9871
3.12538e+07,-62.8245
3.12971e+07,-62.757
3.13404e+07,-61.386
3.13838e+07,-60.6257
3.14271e+07,-61.4125
3.14705e+07,-61.7204
3.15138e+07,-62.0397
3.15572e+07,-62.3583
3.16005e+07,-62.6936
3.16439e+07,-62.6535
3.16872e+07,-61.6092
3.17306e+07,-61.5194
3.17739e+07,-61.7154
3.18173e+07,-61.9444
3.18606e+07,-62.1546
3.1904e+07,-62.2848
3.19473e+07,-61.4645
3.19907e+07,-62.6479
3.2034e+07,-62.8851
3.20774e+07,-62.49
3.21207e+07,-62.6518
3.21641e+07,-62.3605
3.22074e+07,-61.9593
3.22508e+07,-62.4763
3.22941e+07,-62.7044
3.23374e+07,-61.2611
3.23808e+07,-63.3454
3.24241e+07,-61.1783
3.24675e+07,-62.8202
3.25108e+07,-62.253
3.25542e+07,-61.8647
3.25975e+07,-60.5378
3.26409e+07,-62.562
3.26842e+07,-62.0068
3.27276e+07,-62.9969
3.27709e+07,-63.1827
3.28143e+07,-63.1451
3.28576e+07,-62.3196
3.2901e+07,-62.6491
3.29443e+07,-61.2026
3.29877e+07,-63.1914
3.3031e+07,-61.9891
3.30744e+07,-62.6043
3.31177e+07,-62.9817
3.31611e+07,-61.5143
3.32044e+07,-61.3109
3.32477e+07,-62.2715
3.32911e+07,-62.2883
3.33344e+07,-62.2248
3.33778e+07,-61.5797
3.34211e+07,-61.8133
3.34645e+07,-61.3214
3.35078e+07,-61.1373
3.35512e+07,-60.4071
3.35945e+07,-60.5377
3.36379e+07,-59.7176
3.36812e+07,-60.9638
3.37246e+07,-60.3656
3.37679e+07,-58.916
3.38113e+07,-58.2674
3.38546e+07,-59.0812
3.3898e+07,-60.0643
3.39413e+07,-59.8628
3.39847e+07,-57.8421
3.4028e+07,-59.2494
3.40714e+07,-59.6594
3.41147e+07,-59.0102
3.41581e+07,-59.4945
3.42014e+07,-58.055
3.42447e+07,-60.7531
3.42881e+07,-59.9812
3.43314e+07,-60.1419
3.43748e+07,-59.8517
3.44181e+07,-60.8418
3.44615e+07,-61.0562
3.45048e+07,-61.5757
3.45482e+07,-60.211
3.45915e+07,-62.5376
3.46349e+07,-60.6176
3.46782e+07,-61.4779
3.47216e+07,-61.6417
3.47649e+07,-62.1777
3.48083e+07,-62.1817
3.48516e+07,-62.916
3.4895e+07,-61.3505
3.49383e+07,-63.0075
3.49817e+07,-60.1098
3.5025e+07,-61.684
3.50684e+07,-61.9778
3.51117e+07,-63.3405
3.51551e+07,-62.2987
3.51984e+07,-62.518
3.52417e+07,-61.6753
3.52851e+07,-61.9036
3.53284e+07,-62.1048
3.53718e+07,-61.522
3.54151e+07,-61.164
3.54585e+07,-62.5695
3.55018e+07,-62.4
3.55452e+07,-62.5124
3.55885e+07,-61.5057
3.56319e+07,-62.8996
3.56752e+07,-61.8134
3.57186e+07,-62.3864
3.57619e+07,-61.54
3.58053e+07,-62.2582
3.58486e+07,-62.6651
3.5892e+07,-62.4461
3.59353e+07,-63.3424
3.59787e+07,-62.8032
3.6022e+07,-62.381
3.60654e+07,-63.3515
3.61087e+07,-61.2176
3.61521e+07,-63.332
3.61954e+07,-62.5232
3.62387e+07,-62.4103
3.62821e+07,-62.6592
3.63254e+07,-62.3842
3.63688e+07,-62.1135
3.64121e+07,-61.8834
3.64555e+07,-62.5572
3.64988e+07,-63.0993
3.65422e+07,-60.9938
3.65855e+07,-61.7261
3.66289e+07,-62.0628
3.66722e+07,-62.5215
3.67156e+07,-61.9801
3.67589e+07,-62.7064
3.68023e+07,-60.8657
3.68456e+07,-61.0477
3.6889e+07,-62.166
3.69323e+07,-61.6259
3.69757e+07,-62.5598
3.7019e+07,-61.3201
3.70624e+07,-61.5471
3.71057e+07,-62.057
3.7149e+07,-62.1818
3.71924e+07,-62.4113
3.72357e+07,-60.1681
3.72791e+07,-61.9863
3.73224e+07,-61.2133
3.73658e+07,-62.6686
3.74091e+07,-61.5031
3.74525e+07,-60.9759
3.74958e+07,-62.6993
3.75392e+07,-61.5376
3.75825e+07,-61.9117
3.76259e+07,-61.9564
3.76692e+07,-61.9767
3.77126e+07,-61.537
3.77559e+07,-62.0175
3.77993e+07,-62.3191
3.78426e+07,-61.56
3.7886e+07,-62.8371
3.79293e+07,-61.9963
3.79727e+07,-62.2802
3.8016e+07,-61.6221
3.80594e+07,-62.3352
3.81027e+07,-60.8431
3.8146e+07,-61.1991
3.81894e+07,-60.9916
3.82327e+07,-62.1863
3.82761e+07,-61.6646
3.83194e+07,-60.6185
3.83628e+07,-61.2737
3.84061e+07,-61.6562
3.84495e+07,-61.3952
3.84928e+07,-62.4023
3.85362e+07,-61.5888
3.85795e+07,-62.0559
3.86229e+07,-61.7548
3.86662e+07,-60.7908
3.87096e+07,-60.3377
3.87529e+07,-60.953
3.87963e+07,-61.4209
3.88396e+07,-60.5642
3.8883e+07,-60.585
3.89263e+07,-60.9853
3.89697e+07,-61.0549
3.9013e+07,-60.7932
3.90564e+07,-61.0805
3.90997e+07,-60.3669
3.9143e+07,-60.3192
3.91864e+07,-60.3428
3.92297e+07,-59.1003
3.92731e+07,-61.1316
3.93164e+07,-60.0713
3.93598e+07,-60.1839
3.94031e+07,-59.2393
3.94465e+07,-57.6815
3.94898e+07,-60.2236
3.95332e+07,-58.9128
3.95765e+07,-58.9908
3.96199e+07,-58.8464
3.96632e+07,-58.562
3.97066e+07,-59.3678
3.97499e+07,-59.8454
3.97933e+07,-58.2997
3.98366e+07,-59.5206
3.988e+07,-57.9544
3.99233e+07,-57.9853
3.99667e+07,-59.6259
4.001e+07,-60.4976
4.00534e+07,-58.4642
4.00967e+07,-59.4888
4.014e+07,-59.8569
4.01834e+07,-59.2395
4.02267e+07,-57.432
4.02701e+07,-60.2915
4.03134e+07,-61.3122
4.03568e+07,-60.6676
4.04001e+07,-60.8818
4.04435e+07,-60.434
4.04868e+07,-60.2806
4.05302e+07,-60.6177
4.05735e+07,-61.4184
4.06169e+07,-60.7589
4.06602e+07,-60.9026
4.07036e+07,-59.8517
4.07469e+07,-60.5784
4.07903e+07,-59.9062
4.08336e+07,-60.0824
4.0877e+07,-61.4058
4.09203e+07,-60.4426
4.09637e+07,-60.797
4.1007e+07,-60.602
4.10504e+07,-59.6221
4.10937e+07,-59.7703
4.1137e+07,-60.8251
4.11804e+07,-60.8034
4.12237e+07,-59.525
4.12671e+07,-58.623
4.13104e+07,-60.2608
4.13538e+07,-60.6535
4.13971e+07,-60.1102
4.14405e+07,-60.1365
4.14838e+07,-60.143
4.15272e+07,-60.8381
4.15705e+07,-60.8416
4.16139e+07,-61.1122
4.16572e+07,-59.9908
4.17006e+07,-59.3335
4.17439e+07,-59.6196
4.17873e+07,-60.3539
4.18306e+07,-61.2576
4.1874e+07,-61.2801
4.19173e+07,-60.2755
4.19607e+07,-60.2956
4.2004e+07,-61.896
4.20473e+07,-62.056
4.20907e+07,-61.7265
4.2134e+07,-61.1588
4.21774e+07,-61.7421
4.22207e+07,-61.3017
4.22641e+07,-61.698
4.23074e+07,-61.6661
4.23508e+07,-62.4795
4.23941e+07,-62.5888
4.24375e+07,-61.7292
4.24808e+07,-61.5006
4.25242e+07,-62.1125
4.25675e+07,-62.104
4.26109e+07,-61.8492
4.26542e+07,-62.1455
4.26976e+07,-61.2658
4.27409e+07,-60.8663
4.27843e+07,-61.484
4.28276e+07,-58.1821
4.2871e+07,-60.1981
4.29143e+07,-61.4178
4.29577e+07,-60.3737
4.3001e+07,-60.7148
4.30443e+07,-61.0368
4.30877e+07,-61.4985
4.3131e+07,-61.5646
4.31744e+07,-60.9155
4.32177e+07,-59.9137
4.32611e+07,-60.2034
4.33044e+07,-60.9259
4.33478e+07,-60.875
4.33911e+07,-60.5516
4.34345e+07,-60.6214
4.34778e+07,-59.9323
4.35212e+07,-59.9321
4.35645e+07,-60.2259
4.36079e+07,-59.5382
4.36512e+07,-60.5891
4.36946e+07,-59.4915
4.37379e+07,-60.7158
4.37813e+07,-60.34
4.38246e+07,-59.7193
4.3868e+07,-60.3159
4.39113e+07,-60.3874
4.39547e+07,-59.0307
4.3998e+07,-60.2613
4.40413e+07,-60.0677
4.40847e+07,-60.9596
4.4128e+07,-58.4033
4.41714e+07,-60.8323
4.42147e+07,-59.4128
4.42581e+07,-60.3759
4.43014e+07,-59.8775
4.43448e+07,-60.3176
4.43881e+07,-58.3508
4.44315e+07,-59.4273
4.44748e+07,-59.3813
4.45182e+07,-60.3001
4.45615e+07,-59.0902
4.46049e+07,-60.0492
4.46482e+07,-58.1201
4.46916e+07,-60.2825
4.47349e+07,-58.8425
4.47783e+07,-59.9863
4.48216e+07,-58.9171
4.4865e+07,-60.8047
4.49083e+07,-59.1571
4.49517e+07,-61.1301
4.4995e+07,-58.5099
4.50383e+07,-59.7499
4.50817e+07,-59.0091
4.5125e+07,-60.5559
4.51684e+07,-59.2068
4.52117e+07,-61.3866
4.52551e+07,-59.5417
4.52984e+07,-60.2365
4.53418e+07,-60.6217
4.53851e+07,-60.3139
4.54285e+07,-60.5723
4.54718e+07,-61.2825
4.55152e+07,-59.1757
4.55585e+07,-60.7342
4.56019e+07,-60.1751
4.56452e+07,-60.9322
4.56886e+07,-59.1335
4.57319e+07,-60.3297
4.57753e+07,-59.9208
4.58186e+07,-59.7313
4.5862e+07,-61.2773
4.59053e+07,-61.927
4.59486e+07,-60.7865
4.5992e+07,-61.2807
4.60353e+07,-60.5596
4.60787e+07,-61.3146
4.6122e+07,-60.7109
4.61654e+07,-61.2953
4.62087e+07,-61.3065
4.62521e+07,-61.656
4.62954e+07,-61.2191
4.63388e+07,-61.6043
4.63821e+07,-61.3059
4.64255e+07,-61.4594
4.64688e+07,-60.4435
4.65122e+07,-60.9218
4.65555e+07,-60.9107
4.65989e+07,-62.421
4.66422e+07,-60.6488
4.66856e+07,-61.3201
4.67289e+07,-61.1312
4.67723e+07,-61.0088
4.68156e+07,-61.2512
4.6859e+07,-59.8169
4.69023e+07,-60.8986
4.69456e+07,-60.7543
4.6989e+07,-59.2603
4.70323e+07,-60.8909
4.70757e+07,-61.205
4.7119e+07,-61.4106
4.71624e+07,-60.8253
4.72057e+07,-60.3007
4.72491e+07,-60.4822
4.72924e+07,-61.4525
4.73358e+07,-60.1489
4.73791e+07,-59.7162
4.74225e+07,-61.2075
4.74658e+07,-60.8857
4.75092e+07,-60.6811
4.75525e+07,-61.0207
4.75959e+07,-60.9253
4.76392e+07,-60.8452
4.76826e+07,-61.035
4.77259e+07,-59.7818
4.77693e+07,-60.3497
4.78126e+07,-60.7906
4.7856e+07,-61.206
4.78993e+07,-61.0011
4.79426e+07,-60.16
4.7986e+07,-60.7113
4.80293e+07,-61.2962
4.80727e+07,-60.761
4.8116e+07,-61.6336
4.81594e+07,-60.6011
4.82027e+07,-59.9382
4.82461e+07,-60.3994
4.82894e+07,-60.985
4.83328e+07,-60.8826
4.83761e+07,-61.7241
4.84195e+07,-60.0324
4.84628e+07,-60.9881
4.85062e+07,-60.2521
4.85495e+07,-61.1397
4.85929e+07,-60.1644
4.86362e+07,-61.1207
4.86796e+07,-60.4322
4.87229e+07,-61.2444
4.87663e+07,-59.3144
4.88096e+07,-60.6978
4.8853e+07,-61.0014
4.88963e+07,-60.1533
4.89396e+07,-60.866
4.8983e+07,-60.3012
4.90263e+07,-60.3248
4.90697e+07,-60.2534
4.9113e+07,-60.7323
4.91564e+07,-61.052
4.91997e+07,-61.4651
4.92431e+07,-60.1488
4.92864e+07,-61.307
4.93298e+07,-60.3578
4.93731e+07,-59.7059
4.94165e+07,-59.6018
4.94598e+07,-61.2418
4.95032e+07,-60.1679
4.95465e+07,-61.0654
4.95899e+07,-61.1435
4.96332e+07,-61.1097
4.96766e+07,-60.3327
4.97199e+07,-60.8704
4.97633e+07,-60.7693
4.98066e+07,-60.0307
4.98499e+07,-60.8809
4.98933e+07,-59.5782
4.99366e+07,-60.4312
4.998e+07,-59.8541
5.00233e+07,-60.3759
5.00667e+07,-60.5348
5.011e+07,-61.1755
5.01534e+07,-60.1757
5.01967e+07,-60.3925
5.02401e+07,-60.1721
5.02834e+07,-60.2695
5.03268e+07,-59.017
5.03701e+07,-60.2625
5.04135e+07,-60.0025
5.04568e+07,-60.9372
5.05002e+07,-58.9872
5.05435e+07,-59.5449
5.05869e+07,-58.2455
5.06302e+07,-58.9025
5.06736e+07,-58.3694
5.07169e+07,-58.6879
5.07603e+07,-59.6665
5.08036e+07,-59.3683
5.08469e+07,-59.0388
5.08903e+07,-59.9845
5.09336e+07,-58.4479
5.0977e+07,-59.6343
5.10203e+07,-59.5558
5.10637e+07,-58.7976
5.1107e+07,-59.4748
5.11504e+07,-59.1057
5.11937e+07,-57.2992
5.12371e+07,-59.2277
5.12804e+07,-58.7969
5.13238e+07,-58.4879
5.13671e+07,-58.1364
5.14105e+07,-59.7725
5.14538e+07,-58.2615
5.14972e+07,-58.1333
5.15405e+07,-58.9025
5.15839e+07,-59.8426
5.16272e+07,-57.9573
5.16706e+07,-58.242
5.17139e+07,-58.7102
5.17573e+07,-58.5059
5.18006e+07,-57.1826
5.18439e+07,-58.7723
5.18873e+07,-57.1373
5.19306e+07,-58.2977
5.1974e+07,-57.9225
5.20173e+07,-58.875
5.20607e+07,-58.552
5.2104e+07,-59.0143
5.21474e+07,-59.6969
5.21907e+07,-58.8456
5.22341e+07,-58.2215
5.22774e+07,-59.4095
5.23208e+07,-59.5986
5.23641e+07,-59.9602
5.24075e+07,-59.3176
5.24508e+07,-59.3205
5.24942e+07,-59.1281
5.25375e+07,-60.1481
5.25809e+07,-58.7443
5.26242e+07,-59.0508
5.26676e+07,-60.2789
5.27109e+07,-60.1978
5.27543e+07,-59.513
5.27976e+07,-59.0297
5.28409e+07,-59.1657
5.28843e+07,-59.9586
5.29276e+07,-59.2645
5.2971e+07,-59.8802
5.30143e+07,-59.213
5.30577e+07,-60.411
5.3101e+07,-60.0532
5.31444e+07,-58.3834
5.31877e+07,-58.6744
5.32311e+07,-59.7316
5.32744e+07,-59.3911
5.33178e+07,-59.4678
5.33611e+07,-58.5285
5.34045e+07,-58.7332
5.34478e+07,-58.7472
5.34912e+07,-59.2235
5.35345e+07,-59.0568
5.35779e+07,-59.6229
5.36212e+07,-48.8631
5.36646e+07,-58.8813
5.37079e+07,-57.868
5.37513e+07,-58.7862
5.37946e+07,-59.3955
5.38379e+07,-57.4855
5.38813e+07,-59.6251
5.39246e+07,-57.5073
5.3968e+07,-58.7998
5.40113e+07,-59.1441
5.40547e+07,-58.8829
5.4098e+07,-58.1756
5.41414e+07,-58.7964
5.41847e+07,-58.6235
5.42281e+07,-59.527
5.42714e+07,-59.4094
5.43148e+07,-58.4812
5.43581e+07,-58.2443
5.44015e+07,-58.807
5.44448e+07,-58.6676
5.44882e+07,-58.6169
5.45315e+07,-58.1822
5.45749e+07,-57.7605
5.46182e+07,-58.4609
5.46616e+07,-58.0416
5.47049e+07,-58.5994
5.47482e+07,-57.9034
5.47916e+07,-58.1097
5.48349e+07,-58.1069
5.48783e+07,-58.2857
5.49216e+07,-57.6534
5.4965e+07,-57.6033
5.50083e+07,-56.9637
5.50517e+07,-58.1088
5.5095e+07,-58.1511
5.51384e+07,-57.2843
5.51817e+07,-57.2674
5.52251e+07,-57.454
5.52684e+07,-57.9458
5.53118e+07,-57.7811
5.53551e+07,-56.1259
5.53985e+07,-57.6645
5.54418e+07,-58.0654
5.54852e+07,-56.1297
5.55285e+07,-56.9043
5.55719e+07,-56.5655
5.56152e+07,-57.0925
5.56586e+07,-57.0338
5.57019e+07,-56.8624
5.57452e+07,-57.767
5.57886e+07,-57.7111
5.58319e+07,-56.6113
5.58753e+07,-55.7777
5.59186e+07,-56.5822
5.5962e+07,-57.6828
5.60053e+07,-56.8638
5.60487e+07,-56.6665
5.6092e+07,-57.5673
5.61354e+07,-56.4319
5.61787e+07,-57.1261
5.62221e+07,-55.2413
5.62654e+07,-56.8744
5.63088e+07,-56.7083
5.63521e+07,-55.6577
5.63955e+07,-56.9477
5.64388e+07,-56.2968
5.64822e+07,-56.0887
5.65255e+07,-56.0865
5.65689e+07,-55.491
5.66122e+07,-55.536
5.66556e+07,-56.5113
5.66989e+07,-56.3024
5.67422e+07,-56.1384
5.67856e+07,-56.827
5.68289e+07,-56.4559
5.68723e+07,-55.7301
5.69156e+07,-56.6324
5.6959e+07,-54.8559
5.70023e+07,-56.1439
5.70457e+07,-55.319
5.7089e+07,-55.7578
5.71324e+07,-54.9524
5.71757e+07,-55.3302
5.72191e+07,-55.0466
5.72624e+07,-54.5337
5.73058e+07,-55.2059
5.73491e+07,-55.5714
5.73925e+07,-56.0967
5.74358e+07,-56.2149
5.74792e+07,-54.4877
5.75225e+07,-55.2054
5.75659e+07,-55.5177
5.76092e+07,-56.5154
5.76526e+07,-54.0502
5.76959e+07,-55.8681
5.77392e+07,-54.8177
5.77826e+07,-55.3905
5.78259e+07,-54.5183
5.78693e+07,-56.1145
5.79126e+07,-55.9539
5.7956e+07,-55.3476
5.79993e+07,-55.9557
5.80427e+07,-56.4158
5.8086e+07,-54.0958
5.81294e+07,-56.3311
5.81727e+07,-55.9905
5.82161e+07,-56.2643
5.82594e+07,-55.7167
5.83028e+07,-55.7468
5.83461e+07,-55.7165
5.83895e+07,-56.0964
5.84328e+07,-55.8154
5.84762e+07,-55.8458
5.85195e+07,-56.6331
5.85629e+07,-56.2506
5.86062e+07,-55.3057
5.86495e+07,-56.2997
5.86929e+07,-57.1693
5.87362e+07,-55.8004
5.87796e+07,-56.6907
5.88229e+07,-55.5423
5.88663e+07,-57.1831
5.89096e+07,-56.863
5.8953e+07,-55.9143
5.89963e+07,-55.5893
5.90397e+07,-57.0014
5.9083e+07,-54.891
5.91264e+07,-57.1303
5.91697e+07,-57.0431
5.92131e+07,-56.0714
5.92564e+07,-56.821
5.92998e+07,-56.1702
5.93431e+07,-56.0544
5.93865e+07,-55.4469
5.94298e+07,-55.9441
5.94732e+07,-56.4956
5.95165e+07,-55.4271
5.95599e+07,-57.3935
5.96032e+07,-57.1126
5.96465e+07,-55.2212
5.96899e+07,-55.6813
5.97332e+07,-56.5967
5.97766e+07,-56.4971
5.98199e+07,-57.5628
5.98633e+07,-57.4098
5.99066e+07,-57.7714
5.995e+07,-58.6837
5.99933e+07,-57.967
6.00367e+07,-58.3042
6.008e+07,-55.9055
6.01234e+07,-58.3884
6.01667e+07,-59.0797
6.02101e+07,-58.621
6.02534e+07,-57.9093
6.02968e+07,-58.1933
6.03401e+07,-58.6348
6.03835e+07,-60.1829
6.04268e+07,-59.6798
6.04702e+07,-59.5537
6.05135e+07,-59.4726
6.05569e+07,-59.8623
6.06002e+07,-59.1799
6.06435e+07,-59.7654
6.06869e+07,-60.0686
6.07302e+07,-59.8846
6.07736e+07,-59.2155
6.08169e+07,-59.5968
6.08603e+07,-58.8472
6.09036e+07,-59.8809
6.0947e+07,-58.9806
6.09903e+07,-59.787
6.10337e+07,-59.8806
6.1077e+07,-59.4744
6.11204e+07,-60.9986
6.11637e+07,-60.7688
6.12071e+07,-60.5942
6.12504e+07,-60.1072
6.12938e+07,-59.7383
6.13371e+07,-60.0439
6.13805e+07,-60.8406
6.14238e+07,-60.1502
6.14672e+07,-58.9736
6.15105e+07,-61.3829
6.15539e+07,-59.9544
6.15972e+07,-60.1264
6.16405e+07,-60.9311
6.16839e+07,-61.464
6.17272e+07,-60.5542
6.17706e+07,-60.8288
6.18139e+07,-60.6387
6.18573e+07,-60.3767
6.19006e+07,-60.5573
6.1944e+07,-60.0424
6.19873e+07,-59.7976
6.20307e+07,-60.6488
6.2074e+07,-60.5921
6.21174e+07,-60.7918
6.21607e+07,-60.376
6.22041e+07,-60.9371
6.22474e+07,-61.2395
6.22908e+07,-60.483
6.23341e+07,-61.2964
6.23775e+07,-60.8309
6.24208e+07,-60.5737
6.24642e+07,-60.9696
6.25075e+07,-60.6868
6.25509e+07,-61.0434
6.25942e+07,-60.7834
6.26375e+07,-60.8485
6.26809e+07,-60.503
6.27242e+07,-60.9066
6.27676e+07,-60.6898
6.28109e+07,-60.6683
6.28543e+07,-59.9285
6.28976e+07,-59.7633
6.2941e+07,-59.6739
6.29843e+07,-59.1773
6.30277e+07,-60.5652
6.3071e+07,-60.5475
6.31144e+07,-59.9934
6.31577e+07,-60.329
6.32011e+07,-60.6
6.32444e+07,-60.5823
6.32878e+07,-58.9839
6.33311e+07,-60.0226
6.33745e+07,-59.7142
6.34178e+07,-59.7109
6.34612e+07,-59.5529
6.35045e+07,-59.9859
6.35478e+07,-61.2288
6.35912e+07,-60.0684
6.36345e+07,-60.0982
6.36779e+07,-60.4588
6.37212e+07,-60.2527
6.37646e+07,-59.0446
6.38079e+07,-61.1188
6.38513e+07,-60.1713
6.38946e+07,-60.9441
6.3938e+07,-59.4151
6.39813e+07,-60.2182
6.40247e+07,-60.4719
6.4068e+07,-60.9548
6.41114e+07,-60.4335
6.41547e+07,-60.127
6.41981e+07,-59.981
6.42414e+07,-59.5042
6.42848e+07,-59.6993
6.43281e+07,-59.6231
6.43715e+07,-59.316
6.44148e+07,-60.0598
6.44582e+07,-59.6703
6.45015e+07,-59.5098
6.45448e+07,-59.3004
6.45882e+07,-59.9669
6.46315e+07,-60.0726
6.46749e+07,-58.7464
6.47182e+07,-59.1852
6.47616e+07,-59.0925
6.48049e+07,-59.2785
6.48483e+07,-58.6976
6.48916e+07,-59.1758
6.4935e+07,-59.1877
6.49783e+07,-59.3176
6.50217e+07,-59.281
6.5065e+07,-60.1954
6.51084e+07,-59.7356
6.51517e+07,-59.9525
6.51951e+07,-59.5582
6.52384e+07,-60.0479
6.52818e+07,-59.0321
6.53251e+07,-58.782
6.53685e+07,-58.6595
6.54118e+07,-58.3814
6.54552e+07,-59.4455
6.54985e+07,-57.8969
6.55418e+07,-59.0344
6.55852e+07,-59.4575
6.56285e+07,-60.0106
6.56719e+07,-58.9665
6.57152e+07,-58.9314
6.57586e+07,-58.9986
6.58019e+07,-58.978
6.58453e+07,-59.1167
6.58886e+07,-59.8109
6.5932e+07,-59.3582
6.59753e+07,-58.7262
6.60187e+07,-59.1432
6.6062e+07,-58.7803
6.61054e+07,-58.8405
6.61487e+07,-58.4125
6.61921e+07,-58.3141
6.62354e+07,-59.5777
6.62788e+07,-57.7895
6.63221e+07,-58.8776
6.63655e+07,-58.3164
6.64088e+07,-58.6007
6.64522e+07,-58.4146
6.64955e+07,-58.9939
6.65388e+07,-58.7992
6.65822e+07,-58.3213
6.66255e+07,-58.0404
6.66689e+07,-59.2529
6.67122e+07,-58.8449
6.67556e+07,-58.8246
6.67989e+07,-59.5106
6.68423e+07,-57.6035
6.68856e+07,-57.8781
6.6929e+07,-58.3833
6.69723e+07,-59.6802
6.70157e+07,-58.6896
6.7059e+07,-57.3757
6.71024e+07,-59.087
6.71457e+07,-59.6607
6.71891e+07,-59.1225
6.72324e+07,-59.1015
6.72758e+07,-59.435
6.73191e+07,-58.638
6.73625e+07,-59.134
6.74058e+07,-59.3149
6.74491e+07,-58.6659
6.74925e+07,-58.7368
6.75358e+07,-59.644
6.75792e+07,-58.1068
6.76225e+07,-59.2597
6.76659e+07,-58.514
6.77092e+07,-59.1183
6.77526e+07,-60.0685
6.77959e+07,-59.0439
6.78393e+07,-60.012
6.78826e+07,-59.8482
6.7926e+07,-59.643
6.79693e+07,-60.1281
6.80127e+07,-60.706
6.8056e+07,-59.3623
6.80994e+07,-59.6775
6.81427e+07,-59.9127
6.81861e+07,-58.9081
6.82294e+07,-59.3926
6.82728e+07,-59.2189
6.83161e+07,-58.8671
6.83595e+07,-58.8121
6.84028e+07,-56.905
6.84461e+07,-59.5944
6.84895e+07,-59.9676
6.85328e+07,-59.1014
6.85762e+07,-59.2939
6.86195e+07,-59.17
6.86629e+07,-59.1819
6.87062e+07,-60.1532
6.87496e+07,-58.9974
6.87929e+07,-58.3597
6.88363e+07,-60.0394
6.88796e+07,-59.1904
6.8923e+07,-59.0176
6.89663e+07,-59.0323
6.90097e+07,-57.6436
6.9053e+07,-58.0294
6.90964e+07,-59.5929
6.91397e+07,-59.4864
6.91831e+07,-59.8679
6.92264e+07,-60.3455
6.92698e+07,-58.9084
6.93131e+07,-59.3502
6.93565e+07,-59.8512
6.93998e+07,-59.8739
6.94431e+07,-58.9576
6.94865e+07,-59.6647
6.95298e+07,-58.4846
6.95732e+07,-59.4141
6.96165e+07,-59.1766
6.96599e+07,-59.8537
6.97032e+07,-58.858
6.97466e+07,-59.6008
6.97899e+07,-59.6323
6.98333e+07,-59.8858
6.98766e+07,-60.5139
6.992e+07,-59.8175
6.99633e+07,-59.4163
7.00067e+07,-58.9974
7.005e+07,-58.6343
7.00934e+07,-58.8225
7.01367e+07,-59.2811
7.01801e+07,-57.9821
7.02234e+07,-58.8626
7.02668e+07,-57.8006
7.03101e+07,-59.0943
7.03535e+07,-59.9271
7.03968e+07,-59.2774
7.04401e+07,-59.6943
7.04835e+07,-59.6783
7.05268e+07,-59.9005
7.05702e+07,-60.3905
7.06135e+07,-60.4807
7.06569e+07,-58.4211
7.07002e+07,-60.0882
7.07436e+07,-59.7833
7.07869e+07,-58.1045
7.08303e+07,-59.4358
7.08736e+07,-59.8899
7.0917e+07,-58.2488
7.09603e+07,-59.942
7.10037e+07,-59.5947
7.1047e+07,-59.2123
7.10904e+07,-59.0865
7.11337e+07,-57.5261
7.11771e+07,-58.901
7.12204e+07,-58.7452
7.12638e+07,-59.7531
7.13071e+07,-58.4693
7.13505e+07,-59.2661
7.13938e+07,-59.2236
7.14371e+07,-58.9999
7.14805e+07,-59.5027
7.15238e+07,-58.906
7.15672e+07,-58.0524
7.16105e+07,-59.6407
7.16539e+07,-58.0972
7.16972e+07,-57.7716
7.17406e+07,-58.3527
7.17839e+07,-59.9631
7.18273e+07,-59.2346
7.18706e+07,-58.824
7.1914e+07,-58.5541
7.19573e+07,-56.6978
7.20007e+07,-58.1336
7.2044e+07,-58.7432
7.20874e+07,-60.3319
7.21307e+07,-59.4855
7.21741e+07,-58.4645
7.22174e+07,-59.0808
7.22608e+07,-57.6611
7.23041e+07,-57.3196
7.23474e+07,-58.9215
7.23908e+07,-60.3415
7.24341e+07,-59.5473
7.24775e+07,-58.4389
7.25208e+07,-59.7117
7.25642e+07,-59.407
7.26075e+07,-60.1473
7.26509e+07,-59.7466
7.26942e+07,-59.7273
7.27376e+07,-59.2537
7.27809e+07,-59.6474
7.28243e+07,-59.029
7.28676e+07,-58.9759
7.2911e+07,-59.791
7.29543e+07,-59.0081
7.29977e+07,-59.0257
7.3041e+07,-59.4182
7.30844e+07,-59.5552
7.31277e+07,-59.5834
7.31711e+07,-59.0667
7.32144e+07,-59.917
7.32578e+07,-60.5199
7.33011e+07,-59.8386
7.33444e+07,-60.1254
7.33878e+07,-59.6905
7.34311e+07,-58.3214
7.34745e+07,-58.8955
7.35178e+07,-58.8838
7.35612e+07,-60.5473
7.36045e+07,-58.7796
7.36479e+07,-60.3248
7.36912e+07,-59.841
7.37346e+07,-59.1939
7.37779e+07,-59.7825
7.38213e+07,-58.5552
7.38646e+07,-60.2287
7.3908e+07,-59.9318
7.39513e+07,-59.8468
7.39947e+07,-59.889
7.4038e+07,-60.3238
7.40814e+07,-60.6952
7.41247e+07,-60.1001
7.41681e+07,-59.9772
7.42114e+07,-59.1059
7.42548e+07,-59.6091
7.42981e+07,-61.0902
7.43414e+07,-59.3812
7.43848e+07,-59.6754
7.44281e+07,-60.9303
7.44715e+07,-59.8586
7.45148e+07,-60.5662
7.45582e+07,-59.0842
7.46015e+07,-60.5027
7.46449e+07,-60.4712
7.46882e+07,-60.2098
7.47316e+07,-59.8515
7.47749e+07,-60.3324
7.48183e+07,-59.8904
7.48616e+07,-60.339
7.4905e+07,-59.3064
7.49483e+07,-60.4739
7.49917e+07,-60.8011
7.5035e+07,-60.4877
7.50784e+07,-59.9061
7.51217e+07,-59.4567
7.51651e+07,-60.6036
7.52084e+07,-59.1934
7.52518e+07,-59.4285
7.52951e+07,-59.779
7.53384e+07,-58.9936
7.53818e+07,-60.5149
7.54251e+07,-60.0006
7.54685e+07,-59.7721
7.55118e+07,-60.6954
7.55552e+07,-59.8236
7.55985e+07,-58.6863
7.56419e+07,-60.0134
7.56852e+07,-59.7042
7.57286e+07,-59.0133
7.57719e+07,-59.8653
7.58153e+07,-59.4675
7.58586e+07,-59.6942
7.5902e+07,-60.016
7.59453e+07,-59.5014
7.59887e+07,-60.1393
7.6032e+07,-59.6524
7.60754e+07,-59.4669
7.61187e+07,-59.6459
7.61621e+07,-60.2641
7.62054e+07,-60.4815
7.62487e+07,-59.6614
7.62921e+07,-61.2711
7.63354e+07,-60.1452
7.63788e+07,-60.3286
7.64221e+07,-60.8779
7.64655e+07,-60.5475
7.65088e+07,-60.5686
7.65522e+07,-60.1245
7.65955e+07,-60.1884
7.66389e+07,-60.2018
7.66822e+07,-60.4489
7.67256e+07,-61.3818
7.67689e+07,-60.6709
7.68123e+07,-60.5396
7.68556e+07,-60.7786
7.6899e+07,-60.1069
7.69423e+07,-60.4274
7.69857e+07,-61.5654
7.7029e+07,-59.908
7.70724e+07,-60.2995
7.71157e+07,-59.6087
7.71591e+07,-60.613
7.72024e+07,-60.8541
7.72457e+07,-60.9679
7.72891e+07,-60.323
7.73324e+07,-60.5701
7.73758e+07,-61.3338
7.74191e+07,-60.1932
7.74625e+07,-60.1931
7.75058e+07,-60.9709
7.75492e+07,-60.7229
7.75925e+07,-60.5554
7.76359e+07,-59.7799
7.76792e+07,-60.6724
7.77226e+07,-61.3407
7.77659e+07,-60.2979
7.78093e+07,-61.5952
7.78526e+07,-61.6309
7.7896e+07,-60.516
7.79393e+07,-60.9183
7.79827e+07,-61.1568
7.8026e+07,-59.5498
7.80694e+07,-59.8794
7.81127e+07,-61.8568
7.81561e+07,-59.4371
7.81994e+07,-61.2934
7.82427e+07,-61.3318
7.82861e+07,-60.7211
7.83294e+07,-60.2148
7.83728e+07,-61.3663
7.84161e+07,-61.7299
7.84595e+07,-60.4412
7.85028e+07,-60.1501
7.85462e+07,-60.4585
7.85895e+07,-60.2959
7.86329e+07,-61.4123
7.86762e+07,-60.6166
7.87196e+07,-60.0459
7.87629e+07,-60.4301
7.88063e+07,-60.9383
7.88496e+07,-60.3813
7.8893e+07,-60.4961
7.89363e+07,-60.9713
7.89797e+07,-60.3053
7.9023e+07,-59.2997
7.90664e+07,-58.2674
7.91097e+07,-60.2163
7.91531e+07,-60.993
7.91964e+07,-59.7119
7.92397e+07,-59.503
7.92831e+07,-59.2655
7.93264e+07,-60.4253
7.93698e+07,-59.86
7.94131e+07,-60.5476
7.94565e+07,-59.6348
7.94998e+07,-59.2681
7.95432e+07,-59.6759
7.95865e+07,-59.6282
7.96299e+07,-58.5667
7.96732e+07,-59.418
7.97166e+07,-59.8592
7.97599e+07,-58.9361
7.98033e+07,-58.4409
7.98466e+07,-59.8981
7.989e+07,-59.6815
7.99333e+07,-60.2313
7.99767e+07,-59.1131
8.002e+07,-59.8163
8.00634e+07,-59.9205
8.01067e+07,-59.8713
8.01501e+07,-60.7239
8.01934e+07,-60.1226
8.02367e+07,-59.2542
8.02801e+07,-59.5507
8.03234e+07,-60.3158
8.03668e+07,-59.4848
8.04101e+07,-60.5487
8.04535e+07,-59.9953
8.04968e+07,-59.1839
8.05402e+07,-60.6907
8.05835e+07,-58.7373
8.06269e+07,-60.4083
8.06702e+07,-59.4436
8.07136e+07,-58.5305
8.07569e+07,-59.9748
8.08003e+07,-58.9045
8.08436e+07,-60.8455
8.0887e+07,-59.8013
8.09303e+07,-59.3074
8.09737e+07,-58.4964
8.1017e+07,-59.5207
8.10604e+07,-59.83
8.11037e+07,-60.6429
8.1147e+07,-60.1204
8.11904e+07,-60.1001
8.12337e+07,-60.1639
8.12771e+07,-60.1807
8.13204e+07,-59.6781
8.13638e+07,-59.98
8.14071e+07,-60.2551
8.14505e+07,-59.9468
8.14938e+07,-60.5427
8.15372e+07,-60.0826
8.15805e+07,-59.5697
8.16239e+07,-59.6551
8.16672e+07,-60.8399
8.17106e+07,-59.809
8.17539e+07,-60.183
8.17973e+07,-60.7272
8.18406e+07,-61.1855
8.1884e+07,-60.0185
8.19273e+07,-59.5123
8.19707e+07,-61.864
8.2014e+07,-60.4224
8.20574e+07,-59.9191
8.21007e+07,-60.6834
8.2144e+07,-60.0478
8.21874e+07,-61.0193
8.22307e+07,-61.3031
8.22741e+07,-60.8677
8.23174e+07,-62.1004
8.23608e+07,-61.6603
8.24041e+07,-61.4463
8.24475e+07,-60.5158
8.24908e+07,-61.0896
8.25342e+07,-60.6217
8.25775e+07,-60.8779
8.26209e+07,-61.4223
8.26642e+07,-60.6499
8.27076e+07,-61.9905
8.27509e+07,-61.1304
8.27943e+07,-61.4806
8.28376e+07,-60.6388
8.2881e+07,-61.8948
8.29243e+07,-60.6492
8.29677e+07,-59.139
8.3011e+07,-61.0621
8.30544e+07,-61.5827
8.30977e+07,-61.1712
8.3141e+07,-62.5132
8.31844e+07,-61.6904
8.32277e+07,-59.3633
8.32711e+07,-60.4963
8.33144e+07,-61.3701
8.33578e+07,-61.6179
8.34011e+07,-61.8524
8.34445e+07,-61.6297
8.34878e+07,-61.2273
8.35312e+07,-60.9382
8.35745e+07,-61.0048
8.36179e+07,-60.8975
8.36612e+07,-60.7879
8.37046e+07,-61.1584
8.37479e+07,-60.4566
8.37913e+07,-60.5584
8.38346e+07,-60.8603
8.3878e+07,-61.7009
8.39213e+07,-61.173
8.39647e+07,-60.9409
8.4008e+07,-61.1236
8.40514e+07,-59.6589
8.40947e+07,-61.5169
8.4138e+07,-62.3356
8.41814e+07,-58.6632
8.42247e+07,-61.9994
8.42681e+07,-61.1912
8.43114e+07,-61.5125
8.43548e+07,-60.8554
8.43981e+07,-61.5716
8.44415e+07,-61.7036
8.44848e+07,-61.0027
8.45282e+07,-61.7155
8.45715e+07,-61.5951
8.46149e+07,-60.8731
8.46582e+07,-61.6228
8.47016e+07,-61.5709
8.47449e+07,-60.6521
8.47883e+07,-60.4892
8.48316e+07,-61.0391
8.4875e+07,-62.2218
8.49183e+07,-61.4013
8.49617e+07,-61.2813
8.5005e+07,-60.8759
8.50483e+07,-61.8568
8.50917e+07,-62.0518
8.5135e+07,-60.7446
8.51784e+07,-61.4711
8.52217e+07,-59.8169
8.52651e+07,-62.517
8.53084e+07,-61.1697
8.53518e+07,-61.6853
8.53951e+07,-61.6051
8.54385e+07,-61.2955
8.54818e+07,-60.9299
8.55252e+07,-60.7943
8.55685e+07,-60.2453
8.56119e+07,-61.1766
8.56552e+07,-61.1689
8.56986e+07,-61.7654
8.57419e+07,-61.376
8.57853e+07,-60.5149
8.58286e+07,-61.5722
8.5872e+07,-61.2753
8.59153e+07,-60.7175
8.59587e+07,-61.3755
8.6002e+07,-61.7241
8.60453e+07,-61.1984
8.60887e+07,-60.7568
8.6132e+07,-60.1557
8.61754e+07,-62.3917
8.62187e+07,-60.8182
8.62621e+07,-60.9318
8.63054e+07,-60.6448
8.63488e+07,-61.571
8.63921e+07,-62.3433
8.64355e+07,-61.2394
8.64788e+07,-60.9312
8.65222e+07,-60.5026
8.65655e+07,-60.8905
8.66089e+07,-61.5466
8.66522e+07,-61.5346
8.66956e+07,-61.658
8.67389e+07,-60.8097
8.67823e+07,-60.7805
8.68256e+07,-60.3556
8.6869e+07,-60.4702
8.69123e+07,-61.7747
8.69557e+07,-60.9782
8.6999e+07,-61.6373
8.70423e+07,-62.0555
8.70857e+07,-61.365
8.7129e+07,-61.5058
8.71724e+07,-62.3675
8.72157e+07,-61.2952
8.72591e+07,-60.783
8.73024e+07,-61.3956
8.73458e+07,-61.5647
8.73891e+07,-61.314
8.74325e+07,-61.6844
8.74758e+07,-61.4499
8.75192e+07,-61.8345
8.75625e+07,-61.818
8.76059e+07,-61.7284
8.76492e+07,-62.5025
8.76926e+07,-61.8055
8.77359e+07,-61.9869
8.77793e+07,-60.7963
8.78226e+07,-62.1764
8.7866e+07,-61.9077
8.79093e+07,-62.2061
8.79527e+07,-60.8616
8.7996e+07,-61.6911
8.80393e+07,-60.9794
8.80827e+07,-62.2142
8.8126e+07,-61.8044
8.81694e+07,-60.0803
8.82127e+07,-61.965
8.82561e+07,-61.969
8.82994e+07,-61.7187
8.83428e+07,-61.4205
8.83861e+07,-61.0907
8.84295e+07,-61.4398
8.84728e+07,-61.0417
8.85162e+07,-60.3412
8.85595e+07,-62.1534
8.86029e+07,-62.3424
8.86462e+07,-62.6971
8.86896e+07,-60.1767
8.87329e+07,-61.7015
8.87763e+07,-61.8111
8.88196e+07,-61.9096
8.8863e+07,-62.5752
8.89063e+07,-61.9343
8.89496e+07,-62.7873
8.8993e+07,-62.5615
8.90363e+07,-62.7097
8.90797e+07,-60.6383
8.9123e+07,-62.6283
8.91664e+07,-60.8807
8.92097e+07,-60.4612
8.92531e+07,-60.9321
8.92964e+07,-61.2059
8.93398e+07,-62.6188
8.93831e+07,-60.064
8.94265e+07,-61.9829
8.94698e+07,-61.1675
8.95132e+07,-61.2436
8.95565e+07,-60.8908
8.95999e+07,-61.9825
8.96432e+07,-61.9242
8.96866e+07,-62.0325
8.97299e+07,-62.1336
8.97733e+07,-62.0785
8.98166e+07,-61.3199
8.986e+07,-61.5706
8.99033e+07,-62.0236
8.99466e+07,-62.0571
8.999e+07,-60.4244
9.00333e+07,-62.1925
9.00767e+07,-62.5991
9.012e+07,-62.6484
9.01634e+07,-61.7224
9.02067e+07,-61.5579
9.02501e+07,-62.3472
9.02934e+07,-62.4963
9.03368e+07,-61.6735
9.03801e+07,-61.0297
9.04235e+07,-61.6252
9.04668e+07,-61.1689
9.05102e+07,-60.8702
9.05535e+07,-61.9221
9.05969e+07,-61.9885
9.06402e+07,-61.9759
9.06836e+07,-62.562
9.07269e+07,-62.0426
9.07703e+07,-61.9797
9.08136e+07,-62.1141
9.0857e+07,-62.6332
9.09003e+07,-61.5166
9.09436e+07,-62.1265
9.0987e+07,-62.2718
9.10303e+07,-62.3541
9.10737e+07,-61.532
9.1117e+07,-62.5032
9.11604e+07,-62.5119
9.12037e+07,-62.6054
9.12471e+07,-61.0539
9.12904e+07,-61.6995
9.13338e+07,-61.5196
9.13771e+07,-61.7317
9.14205e+07,-62.3968
9.14638e+07,-62.6949
9.15072e+07,-62.4581
9.15505e+07,-60.7619
9.15939e+07,-61.3972
9.16372e+07,-61.1358
9.16806e+07,-62.1121
9.17239e+07,-61.6021
9.17673e+07,-61.8409
9.18106e+07,-62.8448
9.1854e+07,-61.3693
9.18973e+07,-61.6578
9.19406e+07,-61.7913
9.1984e+07,-61.981
9.20273e+07,-61.6014
9.20707e+07,-62.0059
9.2114e+07,-61.5454
9.21574e+07,-61.8523
9.22007e+07,-60.3428
9.22441e+07,-61.9305
9.22874e+07,-62.5048
9.23308e+07,-62.1999
9.23741e+07,-61.1303
9.24175e+07,-62.0723
9.24608e+07,-61.9093
9.25042e+07,-61.0847
9.25475e+07,-61.9922
9.25909e+07,-61.047
9.26342e+07,-62.7832
9.26776e+07,-62.5662
9.27209e+07,-61.2706
9.27643e+07,-60.9164
9.28076e+07,-60.9644
9.2851e+07,-62.4109
9.28943e+07,-61.9581
9.29376e+07,-61.4645
9.2981e+07,-62.7276
9.30243e+07,-62.3363
9.30677e+07,-62.1088
9.3111e+07,-61.6629
9.31544e+07,-61.6067
9.31977e+07,-62.1212
9.32411e+07,-61.6305
9.32844e+07,-62.1848
9.33278e+07,-62.6996
9.33711e+07,-60.8818
9.34145e+07,-62.4579
9.34578e+07,-61.4162
9.35012e+07,-61.5979
9.35445e+07,-61.8121
9.35879e+07,-60.9551
9.36312e+07,-62.3392
9.36746e+07,-61.3533
9.37179e+07,-62.3739
9.37613e+07,-61.5296
9.38046e+07,-62.5501
9.38479e+07,-61.6091
9.38913e+07,-61.2065
9.39346e+07,-61.657
9.3978e+07,-62.7892
9.40213e+07,-61.5449
9.40647e+07,-61.9678
9.4108e+07,-61.951
9.41514e+07,-61.6726
9.41947e+07,-61.6926
9.42381e+07,-60.4109
9.42814e+07,-62.3246
9.43248e+07,-61.6039
9.43681e+07,-61.8142
9.44115e+07,-62.5665
9.44548e+07,-61.2052
9.44982e+07,-62.1394
9.45415e+07,-60.9048
9.45849e+07,-61.5436
9.46282e+07,-61.5713
9.46716e+07,-62.7738
9.47149e+07,-61.631
9.47583e+07,-61.7928
9.48016e+07,-61.6028
9.48449e+07,-61.687
9.48883e+07,-61.5191
9.49316e+07,-60.3364
9.4975e+07,-61.1849
9.50183e+07,-62.525
9.50617e+07,-61.2766
9.5105e+07,-60.3533
9.51484e+07,-63.2088
9.51917e+07,-62.0615
9.52351e+07,-62.3007
9.52784e+07,-61.8243
9.53218e+07,-61.6819
9.53651e+07,-61.6496
9.54085e+07,-61.9688
9.54518e+07,-61.2872
9.54952e+07,-62.137
9.55385e+07,-61.7462
9.55819e+07,-62.3782
9.56252e+07,-61.0811
9.56686e+07,-61.5133
9.57119e+07,-63.0976
9.57553e+07,-62.1918
9.57986e+07,-62.0348
9.58419e+07,-61.9928
9.58853e+07,-62.0894
9.59286e+07,-61.8474
9.5972e+07,-61.9217
9.60153e+07,-62.657
9.60587e+07,-62.1187
9.6102e+07,-61.8635
9.61454e+07,-61.8469
9.61887e+07,-62.238
9.62321e+07,-61.5436
9.62754e+07,-62.7198
9.63188e+07,-61.6594
9.63621e+07,-61.8505
9.64055e+07,-62.0629
9.64488e+07,-62.7925
9.64922e+07,-62.1602
9.65355e+07,-61.6147
9.65789e+07,-63.0671
9.66222e+07,-62.875
9.66656e+07,-62.4723
9.67089e+07,-62.7965
9.67523e+07,-61.7311
9.67956e+07,-61.899
9.68389e+07,-61.8535
9.68823e+07,-61.5979
9.69256e+07,-61.1499
9.6969e+07,-62.5784
9.70123e+07,-63.214
9.70557e+07,-62.4803
9.7099e+07,-63.2331
9.71424e+07,-63.0705
9.71857e+07,-62.5689
9.72291e+07,-61.1605
9.72724e+07,-62.4576
9.73158e+07,-61.9893
9.73591e+07,-62.7904
9.74025e+07,-62.4265
9.74458e+07,-59.4288
9.74892e+07,-61.3482
9.75325e+07,-62.3343
9.75759e+07,-61.7984
9.76192e+07,-62.7531
9.76626e+07,-61.2205
9.77059e+07,-61.4887
9.77492e+07,-61.1898
9.77926e+07,-62.7345
9.78359e+07,-62.3119
9.78793e+07,-62.3031
9.79226e+07,-61.1665
9.7966e+07,-60.6818
9.80093e+07,-62.6976
9.80527e+07,-62.148
9.8096e+07,-61.5075
9.81394e+07,-62.6791
9.81827e+07,-63.8661
9.82261e+07,-61.9872
9.82694e+07,-62.1474
9.83128e+07,-61.1656
9.83561e+07,-62.5082
9.83995e+07,-61.6223
9.84428e+07,-62.2844
9.84862e+07,-63.5844
9.85295e+07,-63.0577
9.85729e+07,-62.7966
9.86162e+07,-62.31
9.86596e+07,-62.3317
9.87029e+07,-62.2277
9.87462e+07,-62.6235
9.87896e+07,-62.7367
9.88329e+07,-62.7685
9.88763e+07,-61.9314
9.89196e+07,-63.09
9.8963e+07,-63.1854
9.90063e+07,-62.3308
9.90497e+07,-62.5914
9.9093e+07,-63.6081
9.91364e+07,-61.9516
9.91797e+07,-63.5177
9.92231e+07,-62.8043
9.92664e+07,-63.1991
9.93098e+07,-62.5505
9.93531e+07,-63.418
9.93965e+07,-62.5995
9.94398e+07,-62.9568
9.94832e+07,-61.2816
9.95265e+07,-61.9966
9.95699e+07,-61.8553
9.96132e+07,-63.334
9.96566e+07,-61.9047
9.96999e+07,-62.4829
9.97432e+07,-62.2468
9.97866e+07,-62.6843
9.98299e+07,-63.0169
9.98733e+07,-62.9324
9.99166e+07,-63.3235
9.996e+07,-62.416
1.00003e+08,-61.8584
1.00047e+08,-61.8913
1.0009e+08,-63.6817
1.00133e+08,-60.6694
1.00177e+08,-62.941
1.0022e+08,-63.2741
1.00263e+08,-62.983
1.00307e+08,-61.2835
1.0035e+08,-62.446
1.00393e+08,-62.3537
1.00437e+08,-62.2279
1.0048e+08,-61.4192
1.00524e+08,-62.5298
1.00567e+08,-61.092
1.0061e+08,-61.6372
1.00654e+08,-62.5741
1.00697e+08,-61.8815
1.0074e+08,-62.1629
1.00784e+08,-63.7055
1.00827e+08,-62.6909
1.0087e+08,-63.1473
1.00914e+08,-62.902
1.00957e+08,-63.1615
1.01e+08,-62.3698
1.01044e+08,-62.7131
1.01087e+08,-62.7403
1.0113e+08,-61.5719
1.01174e+08,-63.3352
1.01217e+08,-61.8638
1.0126e+08,-62.7903
1.01304e+08,-62.7581
1.01347e+08,-63.0322
1.0139e+08,-63.2423
1.01434e+08,-61.041
1.01477e+08,-63.6429
1.01521e+08,-61.9127
1.01564e+08,-62.6892
1.01607e+08,-62.7209
1.01651e+08,-63.1503
1.01694e+08,-62.4076
1.01737e+08,-62.7024
1.01781e+08,-63.0217
1.01824e+08,-62.3853
1.01867e+08,-62.3023
1.01911e+08,-63.5763
1.01954e+08,-62.3239
1.01997e+08,-64.0142
1.02041e+08,-62.6428
1.02084e+08,-63.0588
1.02127e+08,-63.7947
1.02171e+08,-62.9037
1.02214e+08,-61.4229
1.02257e+08,-62.5301
1.02301e+08,-62.4723
1.02344e+08,-63.1534
1.02387e+08,-61.0764
1.02431e+08,-63.7272
1.02474e+08,-62.4852
1.02518e+08,-62.3793
1.02561e+08,-62.6506
1.02604e+08,-63.2056
1.02648e+08,-62.1073
1.02691e+08,-62.7366
1.02734e+08,-63.4347
1.02778e+08,-63.4743
1.02821e+08,-63.5541
1.02864e+08,-61.7126
1.02908e+08,-63.0758
1.02951e+08,-63.0001
1.02994e+08,-62.8785
1.03038e+08,-62.4044
1.03081e+08,-62.7768
1.03124e+08,-62.5058
1.03168e+08,-63.2574
1.03211e+08,-63.0703
1.03254e+08,-63.0608
1.03298e+08,-63.0701
1.03341e+08,-62.0972
1.03384e+08,-63.9688
1.03428e+08,-63.0746
1.03471e+08,-62.9894
1.03515e+08,-63.1076
1.03558e+08,-63.418
1.03601e+08,-64.0794
1.03645e+08,-62.1817
1.03688e+08,-62.3634
1.03731e+08,-62.0203
1.03775e+08,-61.949
1.03818e+08,-62.6205
1.03861e+08,-62.513
1.03905e+08,-62.4773
1.03948e+08,-63.0354
1.03991e+08,-63.1208
1.04035e+08,-61.6693
1.04078e+08,-62.8899
1.04121e+08,-63.4463
1.04165e+08,-61.6047
1.04208e+08,-62.3229
1.04251e+08,-62.997
1.04295e+08,-62.908
1.04338e+08,-63.1919
1.04381e+08,-63.3032
1.04425e+08,-63.5003
1.04468e+08,-62.8843
1.04512e+08,-62.7964
1.04555e+08,-62.9027
1.04598e+08,-63.0576
1.04642e+08,-62.0181
1.04685e+08,-62.8792
1.04728e+08,-63.2878
1.04772e+08,-62.5733
1.04815e+08,-61.3192
1.04858e+08,-62.8509
1.04902e+08,-62.5016
1.04945e+08,-62.5684
1.04988e+08,-62.7907
1.05032e+08,-62.8182
1.05075e+08,-62.5324
1.05118e+08,-62.5367
1.05162e+08,-62.8595
1.05205e+08,-62.6263
1.05248e+08,-63.2622
1.05292e+08,-62.957
1.05335e+08,-62.0081
1.05378e+08,-63.528
1.05422e+08,-63.792
1.05465e+08,-63.3691
1.05509e+08,-62.0963
1.05552e+08,-61.8949
1.05595e+08,-63.3003
1.05639e+08,-62.4555
1.05682e+08,-63.1791
1.05725e+08,-63.7041
1.05769e+08,-62.9887
1.05812e+08,-62.6927
1.05855e+08,-62.7565
1.05899e+08,-63.222
1.05942e+08,-64.1434
1.05985e+08,-63.3043
1.06029e+08,-62.1334
1.06072e+08,-63.4914
1.06115e+08,-61.8894
1.06159e+08,-61.2504
1.06202e+08,-62.6601
1.06245e+08,-63.289
1.06289e+08,-63.8677
1.06332e+08,-62.3528
1.06375e+08,-62.5695
1.06419e+08,-61.7001
1.06462e+08,-62.5068
1.06506e+08,-62.4623
1.06549e+08,-62.1194
1.06592e+08,-63.0623
1.06636e+08,-63.2638
1.06679e+08,-63.029
1.06722e+08,-62.4133
1.06766e+08,-63.4997
1.06809e+08,-62.9253
1.06852e+08,-61.5066
1.06896e+08,-63.0997
1.06939e+08,-62.9907
1.06982e+08,-61.9623
1.07026e+08,-62.8458
1.07069e+08,-62.3905
1.07112e+08,-63.7212
1.07156e+08,-63.4045
1.07199e+08,-63.1276
1.07242e+08,-63.9281
1.07286e+08,-63.8342
1.07329e+08,-63.7669
1.07372e+08,-63.1128
1.07416e+08,-63.399
1.07459e+08,-62.4778
1.07503e+08,-62.7161
1.07546e+08,-63.9642
1.07589e+08,-63.5528
1.07633e+08,-63.8697
1.07676e+08,-64.0167
1.07719e+08,-63.8643
1.07763e+08,-63.3098
1.07806e+08,-63.1837
1.07849e+08,-62.4636
1.07893e+08,-63.9318
1.07936e+08,-63.0071
1.07979e+08,-64.2087
1.08023e+08,-63.0164
1.08066e+08,-63.719
1.08109e+08,-63.358
1.08153e+08,-62.2831
1.08196e+08,-63.7906
1.08239e+08,-62.476
1.08283e+08,-63.0252
1.08326e+08,-61.2106
1.08369e+08,-63.9359
1.08413e+08,-62.6866
1.08456e+08,-63.8262
1.08499e+08,-63.7744
1.08543e+08,-63.795
1.08586e+08,-62.3606
1.0863e+08,-62.7729
1.08673e+08,-63.3566
1.08716e+08,-63.6715
1.0876e+08,-62.7909
1.08803e+08,-63.47
1.08846e+08,-64.0564
1.0889e+08,-63.5498
1.08933e+08,-62.9578
1.08976e+08,-62.9249
1.0902e+08,-63.6759
1.09063e+08,-63.1184
1.09106e+08,-62.5631
1.0915e+08,-63.4047
1.09193e+08,-63.9445
1.09236e+08,-63.8972
1.0928e+08,-62.4779
1.09323e+08,-61.367
1.09366e+08,-63.132
1.0941e+08,-63.3795
1.09453e+08,-63.4934
1.09496e+08,-63.3694
1.0954e+08,-63.5482
1.09583e+08,-62.3015
1.09627e+08,-64.3248
1.0967e+08,-63.5479
1.09713e+08,-63.5127
1.09757e+08,-63.7818
1.098e+08,-63.5576
1.09843e+08,-62.5122
1.09887e+08,-63.4575
1.0993e+08,-64.0591
1.09973e+08,-63.3732
1.10017e+08,-63.378
1.1006e+08,-62.9551
1.10103e+08,-63.4223
1.10147e+08,-63.1541
1.1019e+08,-63.1014
1.10233e+08,-62.4668
1.10277e+08,-63.2309
1.1032e+08,-62.8891
1.10363e+08,-61.9501
1.10407e+08,-62.3388
1.1045e+08,-63.5511
1.10493e+08,-63.5812
1.10537e+08,-62.6952
1.1058e+08,-63.1868
1.10624e+08,-63.9832
1.10667e+08,-63.2446
1.1071e+08,-63.406
1.10754e+08,-63.9566
1.10797e+08,-62.7953
1.1084e+08,-62.7219
1.10884e+08,-63.0522
1.10927e+08,-62.6943
1.1097e+08,-63.9193
1.11014e+08,-62.9951
1.11057e+08,-63.128
1.111e+08,-62.2588
1.11144e+08,-63.615
1.11187e+08,-62.5313
1.1123e+08,-62.7943
1.11274e+08,-64.1685
1.11317e+08,-63.7215
1.1136e+08,-63.3601
1.11404e+08,-63.8869
1.11447e+08,-63.6752
1.1149e+08,-61.8891
1.11534e+08,-63.3991
1.11577e+08,-63.2959
1.11621e+08,-62.9702
1.11664e+08,-62.4457
1.11707e+08,-63.2664
1.11751e+08,-63.4035
1.11794e+08,-63.777
1.11837e+08,-63.1501
1.11881e+08,-64.2702
1.11924e+08,-62.4318
1.11967e+08,-63.4675
1.12011e+08,-63.1882
1.12054e+08,-62.678
1.12097e+08,-63.7969
1.12141e+08,-63.1831
1.12184e+08,-63.111
1.12227e+08,-63.5922
1.12271e+08,-63.2262
1.12314e+08,-64.4401
1.12357e+08,-63.26
1.12401e+08,-64.3182
1.12444e+08,-63.1872
1.12487e+08,-62.7867
1.12531e+08,-62.8885
1.12574e+08,-63.6726
1.12618e+08,-62.9961
1.12661e+08,-63.0765
1.12704e+08,-64.1759
1.12748e+08,-62.4697
1.12791e+08,-62.2332
1.12834e+08,-62.7354
1.12878e+08,-63.6667
1.12921e+08,-63.826
1.12964e+08,-62.8828
1.13008e+08,-62.8316
1.13051e+08,-63.3906
1.13094e+08,-64.089
1.13138e+08,-64.4772
1.13181e+08,-63.5849
1.13224e+08,-63.1181
1.13268e+08,-64.2125
1.13311e+08,-62.4728
1.13354e+08,-63.2285
1.13398e+08,-62.84
1.13441e+08,-63.8041
1.13484e+08,-63.4689
1.13528e+08,-62.9235
1.13571e+08,-63.9079
1.13615e+08,-63.6548
1.13658e+08,-64.2715
1.13701e+08,-62.0051
1.13745e+08,-62.9043
1.13788e+08,-62.853
1.13831e+08,-63.3346
1.13875e+08,-62.476
1.13918e+08,-64.055
1.13961e+08,-64.0336
1.14005e+08,-63.6285
1.14048e+08,-64.1135
1.14091e+08,-63.2851
1.14135e+08,-63.5123
1.14178e+08,-63.6943
1.14221e+08,-64.3304
1.14265e+08,-63.9115
1.14308e+08,-63.5069
1.14351e+08,-63.6582
1.14395e+08,-63.4967
1.14438e+08,-61.9572
1.14481e+08,-63.812
1.14525e+08,-63.7191
1.14568e+08,-63.6526
1.14612e+08,-64.0056
1.14655e+08,-63.6168
1.14698e+08,-63.5561
1.14742e+08,-61.5716
1.14785e+08,-64.4398
1.14828e+08,-63.7853
1.14872e+08,-64.5123
1.14915e+08,-64.0261
1.14958e+08,-63.2054
1.15002e+08,-64.3451
1.15045e+08,-63.9781
1.15088e+08,-63.6361
1.15132e+08,-63.5702
1.15175e+08,-64.3889
1.15218e+08,-63.9093
1.15262e+08,-64.0892
1.15305e+08,-64.0039
1.15348e+08,-63.8099
1.15392e+08,-64.2783
1.15435e+08,-64.5279
1.15478e+08,-63.8044
1.15522e+08,-63.8719
1.15565e+08,-63.6197
1.15609e+08,-64.6465
1.15652e+08,-63.4937
1.15695e+08,-63.7729
1.15739e+08,-63.8871
1.15782e+08,-63.8974
1.15825e+08,-63.9446
1.15869e+08,-63.4284
1.15912e+08,-63.8919
1.15955e+08,-62.5918
1.15999e+08,-64.5209
1.16042e+08,-64.0128
1.16085e+08,-63.9703
1.16129e+08,-63.6795
1.16172e+08,-64.0284
1.16215e+08,-63.8494
1.16259e+08,-63.2848
1.16302e+08,-64.7482
1.16345e+08,-63.8804
1.16389e+08,-64.1726
1.16432e+08,-63.4719
1.16475e+08,-64.2867
1.16519e+08,-64.0382
1.16562e+08,-64.183
1.16606e+08,-64.3744
1.16649e+08,-63.3476
1.16692e+08,-63.6986
1.16736e+08,-63.7138
1.16779e+08,-64.0217
1.16822e+08,-64.5359
1.16866e+08,-63.2445
1.16909e+08,-63.6521
1.16952e+08,-62.5805
1.16996e+08,-64.2308
1.17039e+08,-64.037
1.17082e+08,-64.005
1.17126e+08,-62.9056
1.17169e+08,-63.0897
1.17212e+08,-63.7641
1.17256e+08,-63.8054
1.17299e+08,-64.0417
1.17342e+08,-63.9779
1.17386e+08,-63.5649
1.17429e+08,-64.5627
1.17472e+08,-62.2698
1.17516e+08,-63.1271
1.17559e+08,-64.9734
1.17603e+08,-61.9372
1.17646e+08,-63.509
1.17689e+08,-63.9191
1.17733e+08,-64.3718
1.17776e+08,-63.6909
1.17819e+08,-63.6806
1.17863e+08,-64.377
1.17906e+08,-64.0403
1.17949e+08,-64.7385
1.17993e+08,-62.6503
1.18036e+08,-62.7552
1.18079e+08,-63.7828
1.18123e+08,-62.8195
1.18166e+08,-64.0877
1.18209e+08,-63.29
1.18253e+08,-62.3158
1.18296e+08,-64.0234
1.18339e+08,-64.1195
1.18383e+08,-63.5022
1.18426e+08,-64.13
1.18469e+08,-63.5573
1.18513e+08,-63.0769
1.18556e+08,-63.4718
1.186e+08,-64.3421
1.18643e+08,-63.0528
1.18686e+08,-63.328
1.1873e+08,-63.3821
1.18773e+08,-62.3804
1.18816e+08,-62.9767
1.1886e+08,-62.986
1.18903e+08,-64.5705
1.18946e+08,-63.3964
1.1899e+08,-63.8429
1.19033e+08,-62.8174
1.19076e+08,-63.2831
1.1912e+08,-63.283
1.19163e+08,-63.8477
1.19206e+08,-63.2195
1.1925e+08,-63.0514
1.19293e+08,-63.0276
1.19336e+08,-63.6515
1.1938e+08,-62.8769
1.19423e+08,-63.161
1.19466e+08,-62.961
1.1951e+08,-63.8729
1.19553e+08,-63.8938
1.19597e+08,-62.4225
1.1964e+08,-63.1557
1.19683e+08,-63.17
1.19727e+08,-64.1324
1.1977e+08,-63.2912
1.19813e+08,-64.2079
1.19857e+08,-62.8108
1.199e+08,-63.872
1.19943e+08,-63.8876
1.19987e+08,-63.9823
1.2003e+08,-63.3889
1.20073e+08,-62.7366
1.20117e+08,-63.6445
1.2016e+08,-63.6139
1.20203e+08,-63.453
1.20247e+08,-63.2657
1.2029e+08,-63.7931
1.20333e+08,-64.3325
1.20377e+08,-63.7464
1.2042e+08,-63.2555
1.20463e+08,-62.9728
1.20507e+08,-63.7306
1.2055e+08,-64.4039
1.20594e+08,-63.2017
1.20637e+08,-64.1572
1.2068e+08,-63.9226
1.20724e+08,-63.0717
1.20767e+08,-64.3757
1.2081e+08,-64.0601
1.20854e+08,-63.5667
1.20897e+08,-63.2885
1.2094e+08,-63.8748
1.20984e+08,-64.1509
1.21027e+08,-63.4411
1.2107e+08,-63.1812
1.21114e+08,-62.943
1.21157e+08,-63.4557
1.212e+08,-64.4358
1.21244e+08,-63.3761
1.21287e+08,-64.0911
1.2133e+08,-64.1124
1.21374e+08,-63.5403
1.21417e+08,-64.363
1.2146e+08,-64.3629
1.21504e+08,-62.8162
1.21547e+08,-62.7469
1.21591e+08,-63.1607
1.21634e+08,-63.9943
1.21677e+08,-63.8209
1.21721e+08,-63.9834
1.21764e+08,-64.0739
1.21807e+08,-64.122
1.21851e+08,-64.0844
1.21894e+08,-64.0789
1.21937e+08,-64.5125
1.21981e+08,-64.395
1.22024e+08,-63.3251
1.22067e+08,-64.9272
1.22111e+08,-63.5739
1.22154e+08,-64.0783
1.22197e+08,-63.5485
1.22241e+08,-64.8621
1.22284e+08,-63.7213
1.22327e+08,-63.9714
1.22371e+08,-63.8245
1.22414e+08,-65.1659
1.22457e+08,-63.8817
1.22501e+08,-64.562
1.22544e+08,-64.4103
1.22588e+08,-64.3824
1.22631e+08,-63.6386
1.22674e+08,-63.0243
1.22718e+08,-64.371
1.22761e+08,-64.239
1.22804e+08,-63.3429
1.22848e+08,-64.8081
1.22891e+08,-64.1356
1.22934e+08,-62.9811
1.22978e+08,-63.4414
1.23021e+08,-64.9073
1.23064e+08,-63.1284
1.23108e+08,-63.3078
1.23151e+08,-64.2163
1.23194e+08,-64.9187
1.23238e+08,-63.4359
1.23281e+08,-64.0222
1.23324e+08,-64.1292
1.23368e+08,-64.481
1.23411e+08,-64.4697
1.23454e+08,-63.8898
1.23498e+08,-63.9634
1.23541e+08,-63.2676
1.23585e+08,-63.515
1.23628e+08,-63.6159
1.23671e+08,-64.9235
1.23715e+08,-64.4243
1.23758e+08,-64.4969
1.23801e+08,-63.9574
1.23845e+08,-62.5597
1.23888e+08,-64.8231
1.23931e+08,-64.5813
1.23975e+08,-61.8762
1.24018e+08,-64.0418
1.24061e+08,-62.8705
1.24105e+08,-63.6555
1.24148e+08,-63.862
1.24191e+08,-64.7584
1.24235e+08,-64.4566
1.24278e+08,-63.7063
1.24321e+08,-64.7523
1.24365e+08,-64.3727
1.24408e+08,-64.4003
1.24451e+08,-63.94
1.24495e+08,-64.1372
1.24538e+08,-64.8684
1.24582e+08,-64.0833
1.24625e+08,-63.908
1.24668e+08,-63.8974
1.24712e+08,-64.5965
1.24755e+08,-63.7515
1.24798e+08,-63.5272
1.24842e+08,-64.4607
1.24885e+08,-63.5724
1.24928e+08,-63.6433
1.24972e+08,-64.7104
1.25015e+08,-64.6185
1.25058e+08,-63.6074
1.25102e+08,-63.6685
1.25145e+08,-64.3432
1.25188e+08,-63.9647
1.25232e+08,-63.9434
1.25275e+08,-64.9849
1.25318e+08,-64.75
1.25362e+08,-64.1136
1.25405e+08,-64.2437
1.25448e+08,-63.8432
1.25492e+08,-64.3589
1.25535e+08,-64.8251
1.25579e+08,-64.1239
1.25622e+08,-63.3018
1.25665e+08,-63.0935
1.25709e+08,-64.2703
1.25752e+08,-63.8009
1.25795e+08,-64.2975
1.25839e+08,-63.3455
1.25882e+08,-63.3553
1.25925e+08,-63.306
1.25969e+08,-64.1716
1.26012e+08,-64.286
1.26055e+08,-63.8002
1.26099e+08,-61.892
1.26142e+08,-61.8545
1.26185e+08,-62.6536
1.26229e+08,-63.8885
1.26272e+08,-64.198
1.26315e+08,-62.7035
1.26359e+08,-63.7013
1.26402e+08,-64.7881
1.26445e+08,-64.3401
1.26489e+08,-64.9464
1.26532e+08,-63.66
1.26576e+08,-64.0091
1.26619e+08,-63.4428
1.26662e+08,-64.4957
1.26706e+08,-63.2066
1.26749e+08,-63.961
1.26792e+08,-63.1532
1.26836e+08,-61.9237
1.26879e+08,-63.598
1.26922e+08,-64.1099
1.26966e+08,-63.517
1.27009e+08,-63.1431
1.27052e+08,-63.746
1.27096e+08,-63.4417
1.27139e+08,-62.697
1.27182e+08,-63.2834
1.27226e+08,-62.9521
1.27269e+08,-63.7714
1.27312e+08,-64.0875
1.27356e+08,-64.3934
1.27399e+08,-63.9541
1.27442e+08,-63.3714
1.27486e+08,-63.541
1.27529e+08,-62.9514
1.27573e+08,-63.6218
1.27616e+08,-64.3208
1.27659e+08,-63.2141
1.27703e+08,-62.2586
1.27746e+08,-63.3855
1.27789e+08,-63.3804
1.27833e+08,-63.1411
1.27876e+08,-64.5154
1.27919e+08,-62.8988
1.27963e+08,-64.2759
1.28006e+08,-64.2266
1.28049e+08,-63.0306
1.28093e+08,-63.7746
1.28136e+08,-63.9524
1.28179e+08,-64.0694
1.28223e+08,-64.4248
1.28266e+08,-64.0318
1.28309e+08,-63.0968
1.28353e+08,-63.2173
1.28396e+08,-63.7274
1.28439e+08,-64.1549
1.28483e+08,-63.8048
1.28526e+08,-63.8935
1.2857e+08,-64.1926
1.28613e+08,-63.0578
1.28656e+08,-64.8177
1.287e+08,-63.0148
1.28743e+08,-63.799
1.28786e+08,-64.1649
1.2883e+08,-64.3455
1.28873e+08,-65.2667
1.28916e+08,-64.2847
1.2896e+08,-63.3975
1.29003e+08,-64.4789
1.29046e+08,-58.6629
1.2909e+08,-61.5097
1.29133e+08,-64.3172
1.29176e+08,-62.4843
1.2922e+08,-64.875
1.29263e+08,-64.2236
1.29306e+08,-64.787
1.2935e+08,-64.5514
1.29393e+08,-63.3519
1.29436e+08,-63.6736
1.2948e+08,-63.8233
1.29523e+08,-63.6223
1.29567e+08,-64.0074
1.2961e+08,-64.0446
1.29653e+08,-63.5662
1.29697e+08,-64.5506
1.2974e+08,-64.4044
1.29783e+08,-63.719
1.29827e+08,-64.4154
1.2987e+08,-64.4994
1.29913e+08,-63.652
1.29957e+08,-64.9145
1.3e+08,-64.7273
